Temperature (K)	Pressure (MPa)	Density (l, mol/m3)	Volume (l, m3/mol)	Internal Energy (l, kJ/mol)	Enthalpy (l, kJ/mol)	Entropy (l, J/mol*K)	Cv (l, J/mol*K)	Cp (l, J/mol*K)	Sound Spd. (l, m/s)	Joule-Thomson (l, K/MPa)	Viscosity (l, Pa*s)	Therm. Cond. (l, W/m*K)	Surf. Tension (l, N/m)	Density (v, mol/m3)	Volume (v, m3/mol)	Internal Energy (v, kJ/mol)	Enthalpy (v, kJ/mol)	Entropy (v, J/mol*K)	Cv (v, J/mol*K)	Cp (v, J/mol*K)	Sound Spd. (v, m/s)	Joule-Thomson (v, K/MPa)	Viscosity (v, Pa*s)	Therm. Cond. (v, W/m*K)
83.806	0.068891	35465.	2.8197e-05	-4.8531	-4.8512	53.110	21.956	44.570	862.43	-0.40500	0.00030623	0.13027	0.013421	101.50	0.0098526	1.0103	1.6891	131.15	12.972	22.172	168.12	35.712	6.8154e-06	0.0052564
83.917	0.069781	35448.	2.8210e-05	-4.8481	-4.8462	53.169	21.937	44.569	861.66	-0.40466	0.00030498	0.13012	0.013392	102.70	0.0097375	1.0113	1.6908	131.07	12.976	22.185	168.21	35.616	6.8256e-06	0.0052647
84.029	0.070680	35431.	2.8224e-05	-4.8432	-4.8412	53.228	21.919	44.568	860.90	-0.40432	0.00030374	0.12998	0.013364	103.91	0.0096240	1.0124	1.6926	130.98	12.980	22.197	168.30	35.521	6.8357e-06	0.0052730
84.140	0.071587	35414.	2.8237e-05	-4.8382	-4.8362	53.287	21.901	44.568	860.14	-0.40398	0.00030251	0.12983	0.013335	105.13	0.0095122	1.0134	1.6943	130.90	12.984	22.210	168.40	35.425	6.8459e-06	0.0052814
84.252	0.072504	35398.	2.8251e-05	-4.8333	-4.8312	53.346	21.883	44.568	859.38	-0.40363	0.00030129	0.12968	0.013306	106.36	0.0094020	1.0144	1.6961	130.82	12.988	22.223	168.49	35.331	6.8560e-06	0.0052898
84.363	0.073430	35381.	2.8264e-05	-4.8283	-4.8262	53.405	21.865	44.568	858.61	-0.40328	0.00030007	0.12954	0.013278	107.60	0.0092934	1.0154	1.6979	130.74	12.992	22.235	168.58	35.236	6.8662e-06	0.0052981
84.475	0.074365	35364.	2.8278e-05	-4.8233	-4.8212	53.464	21.847	44.568	857.85	-0.40293	0.00029887	0.12939	0.013249	108.86	0.0091863	1.0165	1.6996	130.66	12.996	22.248	168.66	35.143	6.8763e-06	0.0053065
84.586	0.075309	35347.	2.8291e-05	-4.8184	-4.8163	53.522	21.829	44.568	857.08	-0.40257	0.00029767	0.12924	0.013221	110.12	0.0090808	1.0175	1.7013	130.58	13.000	22.261	168.75	35.049	6.8865e-06	0.0053150
84.698	0.076262	35330.	2.8305e-05	-4.8134	-4.8113	53.581	21.811	44.569	856.32	-0.40221	0.00029648	0.12909	0.013192	111.40	0.0089768	1.0185	1.7031	130.49	13.004	22.274	168.84	34.956	6.8967e-06	0.0053234
84.809	0.077225	35313.	2.8318e-05	-4.8085	-4.8063	53.640	21.794	44.570	855.55	-0.40184	0.00029529	0.12895	0.013164	112.69	0.0088742	1.0195	1.7048	130.41	13.008	22.287	168.93	34.864	6.9068e-06	0.0053318
84.920	0.078197	35296.	2.8332e-05	-4.8035	-4.8013	53.698	21.776	44.571	854.79	-0.40147	0.00029412	0.12880	0.013135	113.98	0.0087731	1.0205	1.7065	130.33	13.012	22.301	169.02	34.772	6.9170e-06	0.0053403
85.032	0.079179	35279.	2.8346e-05	-4.7986	-4.7963	53.756	21.759	44.572	854.02	-0.40110	0.00029295	0.12865	0.013107	115.29	0.0086735	1.0215	1.7083	130.25	13.016	22.314	169.11	34.680	6.9272e-06	0.0053488
85.143	0.080170	35262.	2.8359e-05	-4.7936	-4.7913	53.815	21.741	44.573	853.26	-0.40072	0.00029179	0.12850	0.013079	116.62	0.0085752	1.0225	1.7100	130.17	13.020	22.327	169.20	34.589	6.9374e-06	0.0053573
85.255	0.081171	35245.	2.8373e-05	-4.7886	-4.7863	53.873	21.724	44.575	852.49	-0.40034	0.00029064	0.12836	0.013050	117.95	0.0084783	1.0235	1.7117	130.09	13.024	22.341	169.29	34.498	6.9476e-06	0.0053658
85.366	0.082181	35228.	2.8387e-05	-4.7837	-4.7814	53.931	21.706	44.576	851.72	-0.39995	0.00028949	0.12821	0.013022	119.29	0.0083828	1.0245	1.7134	130.01	13.029	22.354	169.37	34.407	6.9578e-06	0.0053743
85.478	0.083201	35211.	2.8401e-05	-4.7787	-4.7764	53.989	21.689	44.578	850.95	-0.39956	0.00028835	0.12806	0.012993	120.65	0.0082886	1.0255	1.7151	129.93	13.033	22.368	169.46	34.317	6.9680e-06	0.0053828
85.589	0.084231	35194.	2.8414e-05	-4.7738	-4.7714	54.047	21.672	44.580	850.19	-0.39917	0.00028722	0.12791	0.012965	122.01	0.0081957	1.0265	1.7168	129.85	13.037	22.382	169.55	34.228	6.9782e-06	0.0053914
85.701	0.085270	35176.	2.8428e-05	-4.7688	-4.7664	54.105	21.655	44.582	849.42	-0.39877	0.00028610	0.12777	0.012937	123.39	0.0081042	1.0275	1.7185	129.77	13.041	22.396	169.64	34.138	6.9884e-06	0.0054000
85.812	0.086320	35159.	2.8442e-05	-4.7639	-4.7614	54.163	21.638	44.585	848.65	-0.39837	0.00028498	0.12762	0.012908	124.78	0.0080139	1.0285	1.7202	129.70	13.046	22.409	169.72	34.050	6.9986e-06	0.0054085
85.924	0.087379	35142.	2.8456e-05	-4.7589	-4.7564	54.220	21.621	44.587	847.88	-0.39797	0.00028387	0.12747	0.012880	126.19	0.0079248	1.0295	1.7219	129.62	13.050	22.423	169.81	33.961	7.0088e-06	0.0054172
86.035	0.088448	35125.	2.8470e-05	-4.7539	-4.7514	54.278	21.604	44.590	847.11	-0.39756	0.00028277	0.12732	0.012852	127.60	0.0078370	1.0304	1.7236	129.54	13.054	22.438	169.90	33.873	7.0190e-06	0.0054258
86.147	0.089528	35108.	2.8483e-05	-4.7490	-4.7464	54.336	21.587	44.593	846.34	-0.39715	0.00028167	0.12718	0.012823	129.03	0.0077504	1.0314	1.7253	129.46	13.058	22.452	169.98	33.785	7.0293e-06	0.0054344
86.258	0.090617	35091.	2.8497e-05	-4.7440	-4.7414	54.393	21.571	44.596	845.57	-0.39673	0.00028059	0.12703	0.012795	130.46	0.0076649	1.0324	1.7270	129.38	13.063	22.466	170.07	33.698	7.0395e-06	0.0054431
86.370	0.091717	35074.	2.8511e-05	-4.7391	-4.7365	54.451	21.554	44.599	844.80	-0.39631	0.00027950	0.12688	0.012767	131.91	0.0075807	1.0334	1.7286	129.30	13.067	22.480	170.15	33.611	7.0497e-06	0.0054517
86.481	0.092827	35057.	2.8525e-05	-4.7341	-4.7315	54.508	21.537	44.602	844.03	-0.39589	0.00027843	0.12673	0.012738	133.38	0.0074976	1.0343	1.7303	129.23	13.072	22.495	170.24	33.525	7.0600e-06	0.0054604
86.593	0.093947	35040.	2.8539e-05	-4.7292	-4.7265	54.565	21.521	44.606	843.25	-0.39546	0.00027736	0.12659	0.012710	134.85	0.0074156	1.0353	1.7320	129.15	13.076	22.509	170.33	33.439	7.0702e-06	0.0054691
86.704	0.095078	35022.	2.8553e-05	-4.7242	-4.7215	54.623	21.504	44.609	842.48	-0.39503	0.00027630	0.12644	0.012682	136.34	0.0073347	1.0363	1.7336	129.07	13.080	22.524	170.41	33.353	7.0805e-06	0.0054778
86.815	0.096219	35005.	2.8567e-05	-4.7192	-4.7165	54.680	21.488	44.613	841.71	-0.39459	0.00027524	0.12629	0.012654	137.84	0.0072550	1.0372	1.7353	129.00	13.085	22.539	170.50	33.268	7.0908e-06	0.0054866
86.927	0.097371	34988.	2.8581e-05	-4.7143	-4.7115	54.737	21.471	44.617	840.94	-0.39415	0.00027420	0.12614	0.012626	139.35	0.0071763	1.0382	1.7369	128.92	13.089	22.553	170.58	33.183	7.1010e-06	0.0054953
87.038	0.098533	34971.	2.8595e-05	-4.7093	-4.7065	54.794	21.455	44.621	840.16	-0.39371	0.00027315	0.12600	0.012597	140.87	0.0070987	1.0391	1.7386	128.84	13.094	22.568	170.67	33.098	7.1113e-06	0.0055041
87.150	0.099706	34954.	2.8609e-05	-4.7044	-4.7015	54.851	21.439	44.626	839.39	-0.39326	0.00027212	0.12585	0.012569	142.41	0.0070221	1.0401	1.7402	128.77	13.098	22.583	170.75	33.014	7.1216e-06	0.0055129
87.261	0.10089	34937.	2.8623e-05	-4.6994	-4.6965	54.908	21.423	44.630	838.62	-0.39281	0.00027109	0.12570	0.012541	143.96	0.0069465	1.0410	1.7419	128.69	13.103	22.598	170.83	32.930	7.1318e-06	0.0055217
87.373	0.10208	34919.	2.8637e-05	-4.6944	-4.6915	54.965	21.407	44.635	837.84	-0.39236	0.00027007	0.12555	0.012513	145.52	0.0068720	1.0420	1.7435	128.61	13.107	22.613	170.92	32.847	7.1421e-06	0.0055305
87.484	0.10329	34902.	2.8652e-05	-4.6895	-4.6865	55.021	21.391	44.640	837.07	-0.39190	0.00026905	0.12540	0.012485	147.09	0.0067984	1.0429	1.7451	128.54	13.112	22.629	171.00	32.763	7.1524e-06	0.0055393
87.596	0.10450	34885.	2.8666e-05	-4.6845	-4.6815	55.078	21.375	44.645	836.29	-0.39144	0.00026804	0.12526	0.012457	148.68	0.0067259	1.0439	1.7468	128.46	13.117	22.644	171.08	32.681	7.1627e-06	0.0055482
87.707	0.10573	34868.	2.8680e-05	-4.6796	-4.6765	55.135	21.359	44.650	835.51	-0.39097	0.00026703	0.12511	0.012428	150.28	0.0066543	1.0448	1.7484	128.39	13.121	22.659	171.17	32.598	7.1730e-06	0.0055571
87.819	0.10697	34850.	2.8694e-05	-4.6746	-4.6715	55.191	21.343	44.655	834.74	-0.39050	0.00026604	0.12496	0.012400	151.89	0.0065836	1.0457	1.7500	128.31	13.126	22.675	171.25	32.516	7.1833e-06	0.0055659
87.930	0.10822	34833.	2.8708e-05	-4.6696	-4.6665	55.248	21.327	44.660	833.96	-0.39003	0.00026504	0.12481	0.012372	153.52	0.0065139	1.0467	1.7516	128.24	13.130	22.690	171.33	32.434	7.1936e-06	0.0055749
88.042	0.10948	34816.	2.8723e-05	-4.6647	-4.6615	55.304	21.311	44.666	833.18	-0.38955	0.00026406	0.12467	0.012344	155.16	0.0064451	1.0476	1.7532	128.16	13.135	22.706	171.42	32.353	7.2039e-06	0.0055838
88.153	0.11075	34799.	2.8737e-05	-4.6597	-4.6565	55.360	21.296	44.672	832.40	-0.38907	0.00026308	0.12452	0.012316	156.81	0.0063772	1.0485	1.7548	128.09	13.140	22.722	171.50	32.272	7.2143e-06	0.0055927
88.265	0.11203	34781.	2.8751e-05	-4.6547	-4.6515	55.417	21.280	44.678	831.63	-0.38859	0.00026210	0.12437	0.012288	158.47	0.0063102	1.0494	1.7564	128.02	13.145	22.738	171.58	32.191	7.2246e-06	0.0056017
88.376	0.11333	34764.	2.8765e-05	-4.6498	-4.6465	55.473	21.264	44.684	830.85	-0.38810	0.00026113	0.12422	0.012260	160.15	0.0062441	1.0504	1.7580	127.94	13.149	22.754	171.66	32.111	7.2349e-06	0.0056107
88.487	0.11463	34747.	2.8780e-05	-4.6448	-4.6415	55.529	21.249	44.690	830.07	-0.38761	0.00026017	0.12407	0.012232	161.84	0.0061788	1.0513	1.7596	127.87	13.154	22.770	171.74	32.031	7.2453e-06	0.0056197
88.599	0.11595	34729.	2.8794e-05	-4.6398	-4.6365	55.585	21.233	44.696	829.29	-0.38711	0.00025921	0.12393	0.012204	163.55	0.0061144	1.0522	1.7611	127.79	13.159	22.786	171.82	31.952	7.2556e-06	0.0056287
88.710	0.11728	34712.	2.8808e-05	-4.6349	-4.6315	55.641	21.218	44.703	828.51	-0.38661	0.00025826	0.12378	0.012176	165.27	0.0060509	1.0531	1.7627	127.72	13.164	22.802	171.91	31.872	7.2660e-06	0.0056377
88.822	0.11862	34695.	2.8823e-05	-4.6299	-4.6265	55.697	21.202	44.709	827.73	-0.38611	0.00025731	0.12363	0.012148	167.00	0.0059881	1.0540	1.7643	127.65	13.168	22.819	171.99	31.793	7.2763e-06	0.0056468
88.933	0.11997	34677.	2.8837e-05	-4.6250	-4.6215	55.753	21.187	44.716	826.95	-0.38560	0.00025637	0.12348	0.012120	168.74	0.0059262	1.0549	1.7658	127.57	13.173	22.835	172.07	31.715	7.2867e-06	0.0056558
89.045	0.12133	34660.	2.8852e-05	-4.6200	-4.6165	55.809	21.172	44.723	826.17	-0.38509	0.00025544	0.12333	0.012092	170.50	0.0058650	1.0558	1.7674	127.50	13.178	22.852	172.15	31.636	7.2970e-06	0.0056649
89.156	0.12271	34643.	2.8866e-05	-4.6150	-4.6115	55.865	21.157	44.730	825.38	-0.38458	0.00025451	0.12319	0.012064	172.28	0.0058047	1.0567	1.7690	127.43	13.183	22.868	172.23	31.558	7.3074e-06	0.0056741
89.268	0.12409	34625.	2.8881e-05	-4.6100	-4.6065	55.920	21.142	44.737	824.60	-0.38406	0.00025358	0.12304	0.012036	174.06	0.0057451	1.0576	1.7705	127.36	13.188	22.885	172.31	31.481	7.3178e-06	0.0056832
89.379	0.12549	34608.	2.8895e-05	-4.6051	-4.6015	55.976	21.126	44.745	823.82	-0.38353	0.00025267	0.12289	0.012008	175.86	0.0056863	1.0585	1.7721	127.28	13.193	22.902	172.39	31.403	7.3282e-06	0.0056923
89.491	0.12690	34590.	2.8910e-05	-4.6001	-4.5964	56.032	21.111	44.752	823.04	-0.38301	0.00025175	0.12274	0.011980	177.68	0.0056282	1.0594	1.7736	127.21	13.198	22.919	172.47	31.326	7.3386e-06	0.0057015
89.602	0.12833	34573.	2.8924e-05	-4.5951	-4.5914	56.087	21.096	44.760	822.25	-0.38248	0.00025084	0.12259	0.011953	179.51	0.0055709	1.0602	1.7751	127.14	13.203	22.936	172.55	31.250	7.3490e-06	0.0057107
89.714	0.12976	34555.	2.8939e-05	-4.5902	-4.5864	56.143	21.081	44.768	821.47	-0.38194	0.00024994	0.12245	0.011925	181.35	0.0055143	1.0611	1.7767	127.07	13.208	22.953	172.63	31.173	7.3594e-06	0.0057199
89.825	0.13121	34538.	2.8954e-05	-4.5852	-4.5814	56.198	21.067	44.776	820.68	-0.38141	0.00024904	0.12230	0.011897	183.20	0.0054584	1.0620	1.7782	127.00	13.213	22.970	172.70	31.097	7.3698e-06	0.0057291
89.937	0.13267	34520.	2.8968e-05	-4.5802	-4.5764	56.253	21.052	44.784	819.90	-0.38086	0.00024815	0.12215	0.011869	185.08	0.0054032	1.0629	1.7797	126.93	13.218	22.988	172.78	31.022	7.3802e-06	0.0057384
90.048	0.13414	34503.	2.8983e-05	-4.5753	-4.5714	56.309	21.037	44.792	819.11	-0.38032	0.00024726	0.12200	0.011841	186.96	0.0053487	1.0637	1.7812	126.86	13.223	23.005	172.86	30.946	7.3906e-06	0.0057476
90.160	0.13563	34485.	2.8998e-05	-4.5703	-4.5663	56.364	21.022	44.801	818.33	-0.37977	0.00024638	0.12185	0.011813	188.86	0.0052949	1.0646	1.7827	126.78	13.228	23.023	172.94	30.871	7.4010e-06	0.0057569
90.271	0.13712	34468.	2.9012e-05	-4.5653	-4.5613	56.419	21.007	44.809	817.54	-0.37922	0.00024550	0.12171	0.011786	190.77	0.0052418	1.0655	1.7842	126.71	13.233	23.040	173.02	30.796	7.4115e-06	0.0057662
90.382	0.13863	34450.	2.9027e-05	-4.5603	-4.5563	56.474	20.993	44.818	816.75	-0.37866	0.00024463	0.12156	0.011758	192.70	0.0051894	1.0663	1.7857	126.64	13.238	23.058	173.10	30.722	7.4219e-06	0.0057756
90.494	0.14015	34433.	2.9042e-05	-4.5554	-4.5513	56.529	20.978	44.827	815.97	-0.37810	0.00024376	0.12141	0.011730	194.65	0.0051376	1.0672	1.7872	126.57	13.243	23.076	173.17	30.648	7.4324e-06	0.0057849
90.605	0.14169	34415.	2.9057e-05	-4.5504	-4.5463	56.584	20.964	44.836	815.18	-0.37754	0.00024290	0.12126	0.011702	196.60	0.0050864	1.0680	1.7887	126.50	13.248	23.094	173.25	30.574	7.4428e-06	0.0057943
90.717	0.14324	34398.	2.9072e-05	-4.5454	-4.5412	56.639	20.949	44.845	814.39	-0.37697	0.00024204	0.12111	0.011674	198.57	0.0050359	1.0689	1.7902	126.43	13.253	23.112	173.33	30.500	7.4533e-06	0.0058037
90.828	0.14480	34380.	2.9086e-05	-4.5404	-4.5362	56.694	20.935	44.854	813.60	-0.37639	0.00024118	0.12097	0.011647	200.56	0.0049860	1.0697	1.7917	126.36	13.259	23.130	173.40	30.427	7.4637e-06	0.0058131
90.940	0.14637	34363.	2.9101e-05	-4.5354	-4.5312	56.749	20.920	44.864	812.81	-0.37582	0.00024033	0.12082	0.011619	202.56	0.0049367	1.0706	1.7932	126.29	13.264	23.149	173.48	30.354	7.4742e-06	0.0058225
91.051	0.14796	34345.	2.9116e-05	-4.5305	-4.5262	56.804	20.906	44.873	812.02	-0.37524	0.00023949	0.12067	0.011591	204.58	0.0048880	1.0714	1.7946	126.22	13.269	23.167	173.56	30.281	7.4847e-06	0.0058319
91.163	0.14956	34327.	2.9131e-05	-4.5255	-4.5211	56.858	20.892	44.883	811.23	-0.37465	0.00023865	0.12052	0.011564	206.61	0.0048400	1.0722	1.7961	126.15	13.274	23.186	173.63	30.209	7.4952e-06	0.0058414
91.274	0.15117	34310.	2.9146e-05	-4.5205	-4.5161	56.913	20.877	44.893	810.44	-0.37407	0.00023781	0.12037	0.011536	208.66	0.0047925	1.0731	1.7975	126.08	13.280	23.204	173.71	30.137	7.5057e-06	0.0058509
91.386	0.15279	34292.	2.9161e-05	-4.5155	-4.5111	56.967	20.863	44.903	809.65	-0.37348	0.00023698	0.12023	0.011508	210.72	0.0047456	1.0739	1.7990	126.02	13.285	23.223	173.78	30.065	7.5161e-06	0.0058604
91.497	0.15443	34275.	2.9176e-05	-4.5105	-4.5060	57.022	20.849	44.913	808.86	-0.37288	0.00023616	0.12008	0.011481	212.80	0.0046993	1.0747	1.8004	125.95	13.290	23.242	173.86	29.994	7.5267e-06	0.0058700
91.609	0.15608	34257.	2.9191e-05	-4.5055	-4.5010	57.076	20.835	44.923	808.07	-0.37228	0.00023534	0.11993	0.011453	214.89	0.0046535	1.0755	1.8019	125.88	13.296	23.261	173.93	29.922	7.5372e-06	0.0058795
91.720	0.15775	34239.	2.9206e-05	-4.5006	-4.4960	57.131	20.821	44.933	807.27	-0.37168	0.00023452	0.11978	0.011425	217.00	0.0046083	1.0764	1.8033	125.81	13.301	23.280	174.01	29.851	7.5477e-06	0.0058891
91.832	0.15943	34222.	2.9221e-05	-4.4956	-4.4909	57.185	20.807	44.944	806.48	-0.37107	0.00023371	0.11963	0.011398	219.12	0.0045637	1.0772	1.8047	125.74	13.306	23.299	174.08	29.781	7.5582e-06	0.0058987
91.943	0.16112	34204.	2.9236e-05	-4.4906	-4.4859	57.239	20.792	44.955	805.69	-0.37046	0.00023290	0.11949	0.011370	221.26	0.0045195	1.0780	1.8062	125.67	13.312	23.318	174.16	29.710	7.5687e-06	0.0059083
92.054	0.16282	34186.	2.9252e-05	-4.4856	-4.4808	57.294	20.779	44.965	804.89	-0.36984	0.00023209	0.11934	0.011343	223.42	0.0044760	1.0788	1.8076	125.61	13.317	23.337	174.23	29.640	7.5793e-06	0.0059180
92.166	0.16454	34168.	2.9267e-05	-4.4806	-4.4758	57.348	20.765	44.976	804.10	-0.36923	0.00023129	0.11919	0.011315	225.59	0.0044329	1.0796	1.8090	125.54	13.323	23.357	174.31	29.570	7.5898e-06	0.0059276
92.277	0.16628	34151.	2.9282e-05	-4.4756	-4.4708	57.402	20.751	44.987	803.30	-0.36860	0.00023050	0.11904	0.011288	227.77	0.0043904	1.0804	1.8104	125.47	13.328	23.377	174.38	29.501	7.6004e-06	0.0059373
92.389	0.16802	34133.	2.9297e-05	-4.4706	-4.4657	57.456	20.737	44.999	802.51	-0.36798	0.00022971	0.11889	0.011260	229.97	0.0043483	1.0812	1.8118	125.40	13.334	23.396	174.45	29.432	7.6109e-06	0.0059470
92.500	0.16978	34115.	2.9312e-05	-4.4656	-4.4607	57.510	20.723	45.010	801.71	-0.36734	0.00022892	0.11875	0.011233	232.19	0.0043068	1.0820	1.8132	125.34	13.339	23.416	174.53	29.363	7.6215e-06	0.0059567
92.612	0.17156	34097.	2.9328e-05	-4.4607	-4.4556	57.564	20.709	45.022	800.92	-0.36671	0.00022814	0.11860	0.011205	234.42	0.0042658	1.0828	1.8146	125.27	13.345	23.436	174.60	29.294	7.6321e-06	0.0059665
92.723	0.17335	34080.	2.9343e-05	-4.4557	-4.4506	57.618	20.696	45.033	800.12	-0.36607	0.00022736	0.11845	0.011178	236.67	0.0042252	1.0836	1.8160	125.20	13.350	23.456	174.67	29.225	7.6427e-06	0.0059763
92.835	0.17515	34062.	2.9358e-05	-4.4507	-4.4455	57.672	20.682	45.045	799.32	-0.36543	0.00022658	0.11830	0.011150	238.94	0.0041852	1.0843	1.8174	125.13	13.356	23.476	174.75	29.157	7.6533e-06	0.0059861
92.946	0.17697	34044.	2.9374e-05	-4.4457	-4.4405	57.726	20.668	45.057	798.52	-0.36478	0.00022581	0.11815	0.011123	241.22	0.0041456	1.0851	1.8187	125.07	13.361	23.497	174.82	29.089	7.6638e-06	0.0059959
93.058	0.17880	34026.	2.9389e-05	-4.4407	-4.4354	57.779	20.655	45.069	797.72	-0.36413	0.00022505	0.11801	0.011095	243.52	0.0041065	1.0859	1.8201	125.00	13.367	23.517	174.89	29.021	7.6745e-06	0.0060057
93.169	0.18064	34008.	2.9405e-05	-4.4357	-4.4304	57.833	20.641	45.081	796.92	-0.36348	0.00022428	0.11786	0.011068	245.83	0.0040678	1.0867	1.8215	124.94	13.373	23.537	174.96	28.954	7.6851e-06	0.0060156
93.281	0.18250	33990.	2.9420e-05	-4.4307	-4.4253	57.887	20.628	45.093	796.13	-0.36282	0.00022353	0.11771	0.011040	248.16	0.0040296	1.0874	1.8228	124.87	13.378	23.558	175.03	28.887	7.6957e-06	0.0060255
93.392	0.18438	33973.	2.9436e-05	-4.4257	-4.4202	57.940	20.614	45.106	795.32	-0.36216	0.00022277	0.11756	0.011013	250.51	0.0039918	1.0882	1.8242	124.80	13.384	23.579	175.10	28.820	7.7063e-06	0.0060354
93.504	0.18626	33955.	2.9451e-05	-4.4207	-4.4152	57.994	20.601	45.118	794.52	-0.36149	0.00022202	0.11741	0.010986	252.88	0.0039545	1.0890	1.8255	124.74	13.390	23.600	175.18	28.753	7.7169e-06	0.0060453
93.615	0.18817	33937.	2.9467e-05	-4.4157	-4.4101	58.047	20.587	45.131	793.72	-0.36082	0.00022127	0.11727	0.010958	255.26	0.0039176	1.0897	1.8269	124.67	13.395	23.621	175.25	28.687	7.7276e-06	0.0060553
93.727	0.19008	33919.	2.9482e-05	-4.4107	-4.4051	58.101	20.574	45.144	792.92	-0.36014	0.00022053	0.11712	0.010931	257.65	0.0038812	1.0905	1.8282	124.61	13.401	23.642	175.32	28.621	7.7382e-06	0.0060653
93.838	0.19202	33901.	2.9498e-05	-4.4057	-4.4000	58.154	20.561	45.157	792.12	-0.35946	0.00021979	0.11697	0.010904	260.07	0.0038452	1.0912	1.8295	124.54	13.407	23.663	175.39	28.555	7.7489e-06	0.0060753
93.949	0.19396	33883.	2.9513e-05	-4.4007	-4.3949	58.208	20.547	45.170	791.32	-0.35878	0.00021905	0.11682	0.010876	262.50	0.0038096	1.0920	1.8309	124.48	13.413	23.684	175.46	28.489	7.7595e-06	0.0060853
94.061	0.19592	33865.	2.9529e-05	-4.3957	-4.3899	58.261	20.534	45.183	790.51	-0.35809	0.00021832	0.11667	0.010849	264.95	0.0037744	1.0927	1.8322	124.41	13.419	23.706	175.53	28.424	7.7702e-06	0.0060954
94.172	0.19790	33847.	2.9545e-05	-4.3906	-4.3848	58.314	20.521	45.197	789.71	-0.35740	0.00021759	0.11653	0.010822	267.41	0.0037396	1.0934	1.8335	124.35	13.424	23.727	175.60	28.359	7.7809e-06	0.0061054
94.284	0.19989	33829.	2.9560e-05	-4.3856	-4.3797	58.367	20.508	45.210	788.90	-0.35671	0.00021687	0.11638	0.010794	269.89	0.0037052	1.0942	1.8348	124.28	13.430	23.749	175.67	28.294	7.7916e-06	0.0061155
94.395	0.20190	33811.	2.9576e-05	-4.3806	-4.3747	58.420	20.495	45.224	788.10	-0.35601	0.00021615	0.11623	0.010767	272.39	0.0036712	1.0949	1.8361	124.22	13.436	23.771	175.74	28.229	7.8023e-06	0.0061257
94.507	0.20392	33793.	2.9592e-05	-4.3756	-4.3696	58.474	20.481	45.238	787.29	-0.35531	0.00021543	0.11608	0.010740	274.91	0.0036376	1.0956	1.8374	124.15	13.442	23.793	175.81	28.165	7.8130e-06	0.0061358
94.618	0.20596	33775.	2.9608e-05	-4.3706	-4.3645	58.527	20.468	45.252	786.49	-0.35460	0.00021472	0.11593	0.010713	277.44	0.0036044	1.0964	1.8387	124.09	13.448	23.815	175.87	28.101	7.8237e-06	0.0061460
94.730	0.20801	33757.	2.9624e-05	-4.3656	-4.3594	58.580	20.455	45.266	785.68	-0.35389	0.00021401	0.11579	0.010686	279.99	0.0035715	1.0971	1.8400	124.02	13.454	23.837	175.94	28.037	7.8344e-06	0.0061562
94.841	0.21008	33739.	2.9639e-05	-4.3606	-4.3543	58.633	20.442	45.280	784.88	-0.35317	0.00021330	0.11564	0.010658	282.56	0.0035391	1.0978	1.8413	123.96	13.460	23.860	176.01	27.973	7.8451e-06	0.0061664
94.953	0.21216	33721.	2.9655e-05	-4.3556	-4.3493	58.685	20.429	45.294	784.07	-0.35245	0.00021260	0.11549	0.010631	285.15	0.0035070	1.0985	1.8425	123.89	13.466	23.882	176.08	27.910	7.8559e-06	0.0061767
95.064	0.21426	33703.	2.9671e-05	-4.3505	-4.3442	58.738	20.417	45.309	783.26	-0.35173	0.00021190	0.11534	0.010604	287.75	0.0034752	1.0992	1.8438	123.83	13.472	23.905	176.15	27.846	7.8666e-06	0.0061869
95.176	0.21637	33685.	2.9687e-05	-4.3455	-4.3391	58.791	20.404	45.324	782.45	-0.35100	0.00021120	0.11519	0.010577	290.37	0.0034439	1.0999	1.8451	123.77	13.478	23.927	176.21	27.783	7.8774e-06	0.0061972
95.287	0.21850	33666.	2.9703e-05	-4.3405	-4.3340	58.844	20.391	45.338	781.64	-0.35026	0.00021051	0.11505	0.010550	293.01	0.0034128	1.1006	1.8463	123.70	13.484	23.950	176.28	27.721	7.8881e-06	0.0062076
95.399	0.22064	33648.	2.9719e-05	-4.3355	-4.3289	58.897	20.378	45.353	780.83	-0.34953	0.00020982	0.11490	0.010523	295.67	0.0033822	1.1013	1.8476	123.64	13.490	23.973	176.35	27.658	7.8989e-06	0.0062179
95.510	0.22280	33630.	2.9735e-05	-4.3305	-4.3238	58.949	20.365	45.368	780.02	-0.34879	0.00020913	0.11475	0.010495	298.34	0.0033518	1.1020	1.8488	123.58	13.496	23.996	176.42	27.596	7.9097e-06	0.0062283
95.621	0.22498	33612.	2.9751e-05	-4.3254	-4.3187	59.002	20.352	45.383	779.21	-0.34804	0.00020845	0.11460	0.010468	301.04	0.0033219	1.1027	1.8500	123.51	13.502	24.020	176.48	27.534	7.9205e-06	0.0062387
95.733	0.22717	33594.	2.9767e-05	-4.3204	-4.3136	59.054	20.340	45.399	778.40	-0.34729	0.00020777	0.11446	0.010441	303.75	0.0032922	1.1034	1.8513	123.45	13.509	24.043	176.55	27.472	7.9313e-06	0.0062491
95.844	0.22938	33576.	2.9784e-05	-4.3154	-4.3085	59.107	20.327	45.414	777.59	-0.34654	0.00020709	0.11431	0.010414	306.48	0.0032629	1.1040	1.8525	123.39	13.515	24.066	176.61	27.410	7.9421e-06	0.0062596
95.956	0.23161	33557.	2.9800e-05	-4.3104	-4.3034	59.159	20.314	45.430	776.78	-0.34578	0.00020642	0.11416	0.010387	309.22	0.0032339	1.1047	1.8537	123.33	13.521	24.090	176.68	27.349	7.9529e-06	0.0062701
96.067	0.23385	33539.	2.9816e-05	-4.3053	-4.2983	59.212	20.302	45.446	775.96	-0.34502	0.00020575	0.11401	0.010360	311.99	0.0032052	1.1054	1.8549	123.26	13.527	24.114	176.75	27.288	7.9637e-06	0.0062806
96.179	0.23610	33521.	2.9832e-05	-4.3003	-4.2932	59.264	20.289	45.461	775.15	-0.34425	0.00020508	0.11386	0.010333	314.78	0.0031769	1.1061	1.8561	123.20	13.534	24.138	176.81	27.227	7.9745e-06	0.0062911
96.290	0.23838	33503.	2.9848e-05	-4.2953	-4.2881	59.316	20.277	45.477	774.33	-0.34348	0.00020442	0.11372	0.010306	317.58	0.0031488	1.1067	1.8573	123.14	13.540	24.162	176.88	27.166	7.9854e-06	0.0063016
96.402	0.24066	33484.	2.9865e-05	-4.2902	-4.2830	59.369	20.264	45.494	773.52	-0.34270	0.00020376	0.11357	0.010279	320.40	0.0031211	1.1074	1.8585	123.08	13.546	24.186	176.94	27.106	7.9962e-06	0.0063122
96.513	0.24297	33466.	2.9881e-05	-4.2852	-4.2779	59.421	20.252	45.510	772.70	-0.34192	0.00020310	0.11342	0.010252	323.24	0.0030937	1.1080	1.8597	123.01	13.552	24.210	177.01	27.046	8.0071e-06	0.0063228
96.625	0.24529	33448.	2.9897e-05	-4.2802	-4.2728	59.473	20.239	45.526	771.89	-0.34114	0.00020245	0.11327	0.010225	326.10	0.0030665	1.1087	1.8609	122.95	13.559	24.235	177.07	26.986	8.0180e-06	0.0063335
96.736	0.24763	33429.	2.9914e-05	-4.2751	-4.2677	59.525	20.227	45.543	771.07	-0.34035	0.00020180	0.11313	0.010198	328.98	0.0030397	1.1093	1.8621	122.89	13.565	24.259	177.14	26.926	8.0288e-06	0.0063442
96.848	0.24999	33411.	2.9930e-05	-4.2701	-4.2626	59.577	20.215	45.559	770.26	-0.33956	0.00020115	0.11299	0.010171	331.88	0.0030132	1.1100	1.8632	122.83	13.572	24.284	177.20	26.866	8.0397e-06	0.0063548
96.959	0.25236	33393.	2.9947e-05	-4.2650	-4.2575	59.630	20.202	45.576	769.44	-0.33876	0.00020051	0.11285	0.010145	334.79	0.0029869	1.1106	1.8644	122.77	13.578	24.309	177.26	26.807	8.0506e-06	0.0063656
97.071	0.25475	33374.	2.9963e-05	-4.2600	-4.2524	59.682	20.190	45.593	768.62	-0.33796	0.00019986	0.11270	0.010118	337.73	0.0029610	1.1113	1.8655	122.71	13.584	24.334	177.33	26.747	8.0615e-06	0.0063763
97.182	0.25715	33356.	2.9980e-05	-4.2549	-4.2472	59.734	20.178	45.610	767.80	-0.33715	0.00019922	0.11256	0.010091	340.68	0.0029353	1.1119	1.8667	122.65	13.591	24.359	177.39	26.688	8.0724e-06	0.0063871
97.294	0.25957	33338.	2.9996e-05	-4.2499	-4.2421	59.785	20.166	45.628	766.98	-0.33634	0.00019859	0.11241	0.010064	343.66	0.0029099	1.1125	1.8678	122.58	13.597	24.384	177.45	26.630	8.0833e-06	0.0063979
97.405	0.26201	33319.	3.0013e-05	-4.2449	-4.2370	59.837	20.153	45.645	766.16	-0.33553	0.00019796	0.11227	0.010037	346.65	0.0028848	1.1131	1.8690	122.52	13.604	24.410	177.52	26.571	8.0943e-06	0.0064087
97.516	0.26447	33301.	3.0029e-05	-4.2398	-4.2319	59.889	20.141	45.663	765.34	-0.33471	0.00019732	0.11212	0.010010	349.66	0.0028599	1.1137	1.8701	122.46	13.611	24.435	177.58	26.513	8.1052e-06	0.0064196
97.628	0.26694	33282.	3.0046e-05	-4.2348	-4.2267	59.941	20.129	45.680	764.52	-0.33388	0.00019670	0.11198	0.0099834	352.69	0.0028353	1.1144	1.8712	122.40	13.617	24.461	177.64	26.455	8.1162e-06	0.0064305
97.739	0.26943	33264.	3.0063e-05	-4.2297	-4.2216	59.993	20.117	45.698	763.70	-0.33305	0.00019607	0.11183	0.0099566	355.75	0.0028110	1.1150	1.8723	122.34	13.624	24.487	177.70	26.397	8.1271e-06	0.0064414
97.851	0.27194	33245.	3.0080e-05	-4.2247	-4.2165	60.044	20.105	45.716	762.88	-0.33222	0.00019545	0.11169	0.0099298	358.82	0.0027869	1.1156	1.8735	122.28	13.630	24.513	177.76	26.339	8.1381e-06	0.0064523
97.962	0.27447	33227.	3.0096e-05	-4.2196	-4.2113	60.096	20.093	45.734	762.05	-0.33138	0.00019483	0.11154	0.0099031	361.91	0.0027631	1.1162	1.8746	122.22	13.637	24.539	177.83	26.281	8.1491e-06	0.0064633
98.074	0.27701	33208.	3.0113e-05	-4.2145	-4.2062	60.148	20.081	45.752	761.23	-0.33054	0.00019422	0.11139	0.0098763	365.02	0.0027396	1.1168	1.8757	122.16	13.644	24.565	177.89	26.224	8.1601e-06	0.0064743
98.185	0.27957	33190.	3.0130e-05	-4.2095	-4.2011	60.199	20.069	45.771	760.41	-0.32969	0.00019360	0.11125	0.0098496	368.15	0.0027163	1.1174	1.8767	122.10	13.650	24.591	177.95	26.167	8.1711e-06	0.0064853
98.297	0.28215	33171.	3.0147e-05	-4.2044	-4.1959	60.251	20.057	45.789	759.58	-0.32884	0.00019299	0.11110	0.0098229	371.30	0.0026932	1.1180	1.8778	122.04	13.657	24.618	178.01	26.110	8.1821e-06	0.0064964
98.408	0.28474	33152.	3.0164e-05	-4.1994	-4.1908	60.302	20.045	45.808	758.76	-0.32798	0.00019239	0.11096	0.0097962	374.47	0.0026704	1.1185	1.8789	121.98	13.664	24.645	178.07	26.053	8.1931e-06	0.0065075
98.520	0.28735	33134.	3.0181e-05	-4.1943	-4.1856	60.354	20.033	45.827	757.93	-0.32712	0.00019178	0.11081	0.0097695	377.67	0.0026478	1.1191	1.8800	121.92	13.671	24.672	178.13	25.997	8.2041e-06	0.0065186
98.631	0.28998	33115.	3.0198e-05	-4.1892	-4.1805	60.405	20.021	45.846	757.10	-0.32625	0.00019118	0.11066	0.0097428	380.88	0.0026255	1.1197	1.8810	121.86	13.677	24.699	178.19	25.940	8.2152e-06	0.0065298
98.743	0.29263	33097.	3.0215e-05	-4.1842	-4.1753	60.457	20.009	45.865	756.28	-0.32538	0.00019058	0.11052	0.0097162	384.11	0.0026034	1.1203	1.8821	121.80	13.684	24.726	178.25	25.884	8.2262e-06	0.0065409
98.854	0.29530	33078.	3.0232e-05	-4.1791	-4.1702	60.508	19.998	45.884	755.45	-0.32451	0.00018998	0.11037	0.0096895	387.36	0.0025815	1.1208	1.8832	121.74	13.691	24.753	178.31	25.828	8.2373e-06	0.0065521
98.966	0.29798	33059.	3.0249e-05	-4.1740	-4.1650	60.559	19.986	45.903	754.62	-0.32363	0.00018939	0.11023	0.0096629	390.64	0.0025599	1.1214	1.8842	121.68	13.698	24.781	178.37	25.772	8.2483e-06	0.0065634
99.077	0.30069	33041.	3.0266e-05	-4.1690	-4.1599	60.611	19.974	45.923	753.79	-0.32274	0.00018880	0.11008	0.0096363	393.93	0.0025385	1.1220	1.8852	121.62	13.705	24.808	178.43	25.717	8.2594e-06	0.0065746
99.188	0.30341	33022.	3.0283e-05	-4.1639	-4.1547	60.662	19.962	45.942	752.96	-0.32185	0.00018821	0.10994	0.0096097	397.25	0.0025173	1.1225	1.8863	121.57	13.712	24.836	178.49	25.661	8.2705e-06	0.0065859
99.300	0.30615	33003.	3.0300e-05	-4.1588	-4.1495	60.713	19.951	45.962	752.13	-0.32096	0.00018762	0.10979	0.0095831	400.58	0.0024964	1.1231	1.8873	121.51	13.719	24.864	178.55	25.606	8.2816e-06	0.0065973
99.411	0.30890	32984.	3.0317e-05	-4.1537	-4.1444	60.764	19.939	45.982	751.30	-0.32006	0.00018704	0.10964	0.0095566	403.94	0.0024756	1.1236	1.8883	121.45	13.726	24.892	178.61	25.551	8.2927e-06	0.0066086
99.523	0.31168	32966.	3.0335e-05	-4.1487	-4.1392	60.815	19.928	46.002	750.47	-0.31916	0.00018645	0.10950	0.0095300	407.32	0.0024551	1.1241	1.8893	121.39	13.733	24.920	178.66	25.496	8.3038e-06	0.0066200
99.634	0.31447	32947.	3.0352e-05	-4.1436	-4.1340	60.866	19.916	46.022	749.64	-0.31825	0.00018588	0.10935	0.0095035	410.72	0.0024348	1.1247	1.8903	121.33	13.740	24.949	178.72	25.442	8.3150e-06	0.0066314
99.746	0.31728	32928.	3.0369e-05	-4.1385	-4.1289	60.917	19.904	46.043	748.81	-0.31733	0.00018530	0.10921	0.0094770	414.14	0.0024146	1.1252	1.8913	121.27	13.747	24.977	178.78	25.387	8.3261e-06	0.0066429
99.857	0.32012	32909.	3.0387e-05	-4.1334	-4.1237	60.968	19.893	46.063	747.97	-0.31641	0.00018472	0.10906	0.0094505	417.58	0.0023947	1.1257	1.8923	121.21	13.754	25.006	178.84	25.333	8.3373e-06	0.0066544
99.969	0.32297	32890.	3.0404e-05	-4.1283	-4.1185	61.019	19.881	46.084	747.14	-0.31549	0.00018415	0.10891	0.0094240	421.04	0.0023751	1.1263	1.8933	121.16	13.761	25.035	178.89	25.279	8.3484e-06	0.0066659
100.08	0.32583	32872.	3.0421e-05	-4.1232	-4.1133	61.070	19.870	46.105	746.31	-0.31456	0.00018358	0.10877	0.0093976	424.53	0.0023556	1.1268	1.8943	121.10	13.768	25.064	178.95	25.225	8.3596e-06	0.0066775
100.19	0.32872	32853.	3.0439e-05	-4.1182	-4.1082	61.121	19.859	46.126	745.47	-0.31363	0.00018302	0.10862	0.0093711	428.03	0.0023363	1.1273	1.8953	121.04	13.775	25.093	179.01	25.171	8.3708e-06	0.0066890
100.30	0.33163	32834.	3.0456e-05	-4.1131	-4.1030	61.172	19.847	46.147	744.63	-0.31269	0.00018245	0.10848	0.0093447	431.56	0.0023172	1.1278	1.8962	120.98	13.782	25.123	179.06	25.117	8.3820e-06	0.0067006
100.41	0.33455	32815.	3.0474e-05	-4.1080	-4.0978	61.223	19.836	46.168	743.80	-0.31175	0.00018189	0.10833	0.0093183	435.11	0.0022983	1.1283	1.8972	120.92	13.789	25.152	179.12	25.064	8.3932e-06	0.0067123
100.53	0.33750	32796.	3.0491e-05	-4.1029	-4.0926	61.273	19.824	46.190	742.96	-0.31080	0.00018133	0.10818	0.0092919	438.68	0.0022795	1.1288	1.8981	120.87	13.797	25.182	179.18	25.011	8.4044e-06	0.0067240
100.64	0.34046	32777.	3.0509e-05	-4.0978	-4.0874	61.324	19.813	46.211	742.12	-0.30984	0.00018077	0.10804	0.0092655	442.28	0.0022610	1.1293	1.8991	120.81	13.804	25.212	179.23	24.958	8.4157e-06	0.0067357
100.75	0.34344	32758.	3.0527e-05	-4.0927	-4.0822	61.375	19.802	46.233	741.29	-0.30889	0.00018022	0.10789	0.0092391	445.89	0.0022427	1.1298	1.9000	120.75	13.811	25.242	179.29	24.905	8.4269e-06	0.0067474
100.86	0.34644	32739.	3.0544e-05	-4.0876	-4.0770	61.426	19.791	46.255	740.45	-0.30792	0.00017967	0.10775	0.0092128	449.53	0.0022245	1.1303	1.9009	120.69	13.818	25.272	179.34	24.852	8.4382e-06	0.0067592
100.97	0.34946	32720.	3.0562e-05	-4.0825	-4.0718	61.476	19.779	46.277	739.61	-0.30695	0.00017912	0.10760	0.0091864	453.19	0.0022066	1.1307	1.9019	120.64	13.826	25.303	179.40	24.800	8.4494e-06	0.0067710
101.08	0.35250	32701.	3.0580e-05	-4.0774	-4.0666	61.527	19.768	46.299	738.77	-0.30598	0.00017857	0.10746	0.0091601	456.88	0.0021888	1.1312	1.9028	120.58	13.833	25.333	179.45	24.747	8.4607e-06	0.0067828
101.19	0.35556	32682.	3.0598e-05	-4.0723	-4.0614	61.577	19.757	46.321	737.93	-0.30500	0.00017802	0.10731	0.0091338	460.58	0.0021712	1.1317	1.9037	120.52	13.840	25.364	179.51	24.695	8.4720e-06	0.0067947
101.31	0.35864	32663.	3.0616e-05	-4.0672	-4.0562	61.628	19.746	46.344	737.08	-0.30401	0.00017748	0.10716	0.0091075	464.31	0.0021537	1.1322	1.9046	120.47	13.848	25.395	179.56	24.643	8.4833e-06	0.0068066
101.42	0.36174	32644.	3.0634e-05	-4.0621	-4.0510	61.678	19.735	46.367	736.24	-0.30302	0.00017694	0.10702	0.0090813	468.06	0.0021365	1.1326	1.9055	120.41	13.855	25.426	179.62	24.591	8.4946e-06	0.0068186
101.53	0.36486	32625.	3.0651e-05	-4.0569	-4.0458	61.729	19.724	46.389	735.40	-0.30203	0.00017640	0.10687	0.0090550	471.83	0.0021194	1.1331	1.9064	120.35	13.863	25.457	179.67	24.539	8.5059e-06	0.0068306
101.64	0.36800	32606.	3.0669e-05	-4.0518	-4.0405	61.779	19.713	46.412	734.56	-0.30103	0.00017586	0.10673	0.0090288	475.63	0.0021025	1.1335	1.9072	120.30	13.870	25.489	179.72	24.488	8.5173e-06	0.0068426
101.75	0.37116	32587.	3.0687e-05	-4.0467	-4.0353	61.829	19.702	46.435	733.71	-0.30002	0.00017533	0.10658	0.0090026	479.45	0.0020857	1.1340	1.9081	120.24	13.878	25.521	179.78	24.437	8.5286e-06	0.0068546
101.86	0.37434	32567.	3.0705e-05	-4.0416	-4.0301	61.880	19.691	46.459	732.87	-0.29901	0.00017480	0.10644	0.0089764	483.29	0.0020692	1.1344	1.9090	120.18	13.885	25.552	179.83	24.385	8.5400e-06	0.0068667
101.98	0.37753	32548.	3.0724e-05	-4.0365	-4.0249	61.930	19.680	46.482	732.02	-0.29800	0.00017427	0.10629	0.0089502	487.15	0.0020527	1.1349	1.9098	120.13	13.893	25.584	179.88	24.334	8.5514e-06	0.0068788
102.09	0.38075	32529.	3.0742e-05	-4.0314	-4.0197	61.980	19.669	46.506	731.17	-0.29697	0.00017374	0.10614	0.0089240	491.04	0.0020365	1.1353	1.9107	120.07	13.900	25.617	179.93	24.284	8.5627e-06	0.0068910
102.20	0.38399	32510.	3.0760e-05	-4.0262	-4.0144	62.031	19.658	46.529	730.33	-0.29595	0.00017321	0.10600	0.0088979	494.95	0.0020204	1.1357	1.9115	120.02	13.908	25.649	179.99	24.233	8.5741e-06	0.0069032
102.31	0.38725	32491.	3.0778e-05	-4.0211	-4.0092	62.081	19.647	46.553	729.48	-0.29491	0.00017269	0.10585	0.0088718	498.89	0.0020045	1.1361	1.9124	119.96	13.916	25.681	180.04	24.182	8.5856e-06	0.0069154
102.42	0.39053	32471.	3.0796e-05	-4.0160	-4.0040	62.131	19.636	46.577	728.63	-0.29388	0.00017217	0.10571	0.0088456	502.85	0.0019887	1.1366	1.9132	119.90	13.923	25.714	180.09	24.132	8.5970e-06	0.0069276
102.53	0.39383	32452.	3.0815e-05	-4.0109	-3.9987	62.181	19.625	46.602	727.78	-0.29283	0.00017165	0.10556	0.0088195	506.83	0.0019730	1.1370	1.9140	119.85	13.931	25.747	180.14	24.082	8.6084e-06	0.0069399
102.64	0.39715	32433.	3.0833e-05	-4.0057	-3.9935	62.231	19.614	46.626	726.93	-0.29178	0.00017113	0.10542	0.0087935	510.84	0.0019576	1.1374	1.9148	119.79	13.939	25.780	180.19	24.032	8.6199e-06	0.0069523
102.76	0.40049	32414.	3.0851e-05	-4.0006	-3.9882	62.281	19.604	46.651	726.08	-0.29073	0.00017061	0.10527	0.0087674	514.87	0.0019423	1.1378	1.9156	119.74	13.946	25.814	180.25	23.982	8.6313e-06	0.0069646
102.87	0.40385	32394.	3.0870e-05	-3.9955	-3.9830	62.331	19.593	46.675	725.23	-0.28967	0.00017010	0.10513	0.0087413	518.92	0.0019271	1.1382	1.9164	119.68	13.954	25.847	180.30	23.932	8.6428e-06	0.0069770
102.98	0.40723	32375.	3.0888e-05	-3.9903	-3.9777	62.381	19.582	46.700	724.38	-0.28860	0.00016959	0.10498	0.0087153	523.00	0.0019121	1.1386	1.9172	119.63	13.962	25.881	180.35	23.882	8.6543e-06	0.0069895
103.09	0.41063	32355.	3.0907e-05	-3.9852	-3.9725	62.431	19.572	46.725	723.53	-0.28753	0.00016908	0.10484	0.0086893	527.10	0.0018972	1.1390	1.9180	119.57	13.970	25.915	180.40	23.833	8.6658e-06	0.0070019
103.20	0.41406	32336.	3.0925e-05	-3.9800	-3.9672	62.481	19.561	46.750	722.67	-0.28645	0.00016857	0.10469	0.0086633	531.23	0.0018824	1.1394	1.9188	119.52	13.978	25.949	180.45	23.784	8.6773e-06	0.0070145
103.31	0.41750	32317.	3.0944e-05	-3.9749	-3.9620	62.531	19.550	46.776	721.82	-0.28537	0.00016807	0.10455	0.0086373	535.38	0.0018678	1.1397	1.9196	119.46	13.986	25.983	180.50	23.734	8.6888e-06	0.0070270
103.42	0.42097	32297.	3.0962e-05	-3.9697	-3.9567	62.581	19.540	46.801	720.97	-0.28428	0.00016756	0.10440	0.0086113	539.55	0.0018534	1.1401	1.9203	119.41	13.994	26.017	180.55	23.685	8.7004e-06	0.0070396
103.54	0.42445	32278.	3.0981e-05	-3.9646	-3.9514	62.631	19.529	46.827	720.11	-0.28319	0.00016706	0.10425	0.0085854	543.75	0.0018391	1.1405	1.9211	119.35	14.001	26.052	180.60	23.637	8.7119e-06	0.0070522
103.65	0.42796	32258.	3.1000e-05	-3.9594	-3.9462	62.681	19.519	46.853	719.25	-0.28209	0.00016656	0.10411	0.0085595	547.98	0.0018249	1.1409	1.9218	119.30	14.009	26.087	180.65	23.588	8.7235e-06	0.0070649
103.76	0.43149	32239.	3.1019e-05	-3.9543	-3.9409	62.730	19.508	46.879	718.40	-0.28098	0.00016607	0.10396	0.0085336	552.23	0.0018108	1.1412	1.9226	119.24	14.017	26.122	180.69	23.539	8.7351e-06	0.0070776
103.87	0.43504	32219.	3.1037e-05	-3.9491	-3.9356	62.780	19.498	46.905	717.54	-0.27987	0.00016557	0.10382	0.0085077	556.50	0.0017969	1.1416	1.9233	119.19	14.025	26.157	180.74	23.491	8.7467e-06	0.0070903
103.98	0.43861	32200.	3.1056e-05	-3.9440	-3.9304	62.830	19.487	46.932	716.68	-0.27875	0.00016508	0.10367	0.0084818	560.80	0.0017832	1.1419	1.9240	119.13	14.034	26.193	180.79	23.443	8.7583e-06	0.0071031
104.09	0.44220	32180.	3.1075e-05	-3.9388	-3.9251	62.879	19.477	46.958	715.82	-0.27763	0.00016458	0.10353	0.0084559	565.13	0.0017695	1.1423	1.9247	119.08	14.042	26.228	180.84	23.395	8.7699e-06	0.0071159
104.20	0.44582	32161.	3.1094e-05	-3.9337	-3.9198	62.929	19.466	46.985	714.96	-0.27650	0.00016409	0.10338	0.0084301	569.48	0.0017560	1.1426	1.9255	119.02	14.050	26.264	180.89	23.347	8.7815e-06	0.0071288
104.32	0.44945	32141.	3.1113e-05	-3.9285	-3.9145	62.979	19.456	47.012	714.10	-0.27537	0.00016361	0.10324	0.0084042	573.85	0.0017426	1.1429	1.9262	118.97	14.058	26.300	180.93	23.299	8.7932e-06	0.0071417
104.43	0.45311	32121.	3.1132e-05	-3.9233	-3.9092	63.028	19.445	47.039	713.24	-0.27422	0.00016312	0.10309	0.0083784	578.25	0.0017294	1.1433	1.9268	118.91	14.066	26.337	180.98	23.251	8.8048e-06	0.0071546
104.54	0.45679	32102.	3.1151e-05	-3.9182	-3.9039	63.078	19.435	47.066	712.38	-0.27308	0.00016264	0.10295	0.0083526	582.68	0.0017162	1.1436	1.9275	118.86	14.074	26.373	181.03	23.204	8.8165e-06	0.0071676
104.65	0.46049	32082.	3.1170e-05	-3.9130	-3.8986	63.127	19.425	47.094	711.52	-0.27192	0.00016215	0.10280	0.0083269	587.13	0.0017032	1.1439	1.9282	118.81	14.082	26.410	181.08	23.156	8.8282e-06	0.0071806
104.76	0.46421	32062.	3.1189e-05	-3.9078	-3.8933	63.177	19.415	47.121	710.65	-0.27076	0.00016167	0.10266	0.0083011	591.61	0.0016903	1.1442	1.9289	118.75	14.091	26.447	181.12	23.109	8.8399e-06	0.0071937
104.87	0.46796	32043.	3.1209e-05	-3.9026	-3.8880	63.226	19.404	47.149	709.79	-0.26960	0.00016119	0.10251	0.0082754	596.11	0.0016775	1.1445	1.9295	118.70	14.099	26.484	181.17	23.062	8.8516e-06	0.0072068
104.98	0.47172	32023.	3.1228e-05	-3.8975	-3.8827	63.276	19.394	47.177	708.93	-0.26843	0.00016072	0.10237	0.0082496	600.64	0.0016649	1.1448	1.9302	118.64	14.107	26.521	181.22	23.015	8.8634e-06	0.0072199
105.10	0.47551	32003.	3.1247e-05	-3.8923	-3.8774	63.325	19.384	47.205	708.06	-0.26725	0.00016024	0.10222	0.0082239	605.19	0.0016524	1.1451	1.9308	118.59	14.116	26.559	181.26	22.968	8.8751e-06	0.0072331
105.21	0.47932	31983.	3.1266e-05	-3.8871	-3.8721	63.375	19.374	47.234	707.19	-0.26607	0.00015977	0.10208	0.0081982	609.78	0.0016399	1.1454	1.9315	118.54	14.124	26.597	181.31	22.922	8.8869e-06	0.0072463
105.32	0.48316	31963.	3.1286e-05	-3.8819	-3.8668	63.424	19.364	47.262	706.33	-0.26488	0.00015929	0.10194	0.0081726	614.38	0.0016276	1.1457	1.9321	118.48	14.132	26.635	181.35	22.875	8.8987e-06	0.0072596
105.43	0.48701	31944.	3.1305e-05	-3.8767	-3.8615	63.473	19.353	47.291	705.46	-0.26368	0.00015882	0.10179	0.0081469	619.02	0.0016155	1.1460	1.9327	118.43	14.141	26.673	181.40	22.829	8.9105e-06	0.0072729
105.54	0.49089	31924.	3.1325e-05	-3.8715	-3.8561	63.522	19.343	47.320	704.59	-0.26248	0.00015836	0.10165	0.0081213	623.68	0.0016034	1.1463	1.9333	118.38	14.149	26.711	181.44	22.782	8.9223e-06	0.0072863
105.65	0.49479	31904.	3.1344e-05	-3.8663	-3.8508	63.572	19.333	47.349	703.72	-0.26127	0.00015789	0.10150	0.0080957	628.37	0.0015914	1.1465	1.9340	118.32	14.158	26.750	181.49	22.736	8.9341e-06	0.0072997
105.77	0.49872	31884.	3.1364e-05	-3.8611	-3.8455	63.621	19.323	47.378	702.85	-0.26005	0.00015742	0.10136	0.0080701	633.08	0.0015796	1.1468	1.9346	118.27	14.166	26.789	181.53	22.690	8.9459e-06	0.0073131
105.88	0.50266	31864.	3.1383e-05	-3.8559	-3.8402	63.670	19.313	47.407	701.98	-0.25883	0.00015696	0.10121	0.0080445	637.82	0.0015678	1.1471	1.9351	118.22	14.175	26.828	181.58	22.644	8.9578e-06	0.0073266
105.99	0.50663	31844.	3.1403e-05	-3.8507	-3.8348	63.719	19.303	47.437	701.11	-0.25760	0.00015650	0.10107	0.0080189	642.59	0.0015562	1.1473	1.9357	118.16	14.183	26.867	181.62	22.599	8.9697e-06	0.0073401
106.10	0.51062	31824.	3.1423e-05	-3.8455	-3.8295	63.769	19.293	47.467	700.24	-0.25637	0.00015604	0.10092	0.0079934	647.39	0.0015447	1.1476	1.9363	118.11	14.192	26.907	181.66	22.553	8.9815e-06	0.0073537
106.21	0.51464	31804.	3.1442e-05	-3.8403	-3.8242	63.818	19.283	47.497	699.36	-0.25512	0.00015558	0.10078	0.0079678	652.21	0.0015332	1.1478	1.9369	118.06	14.201	26.947	181.71	22.507	8.9935e-06	0.0073673
106.32	0.51868	31784.	3.1462e-05	-3.8351	-3.8188	63.867	19.274	47.527	698.49	-0.25388	0.00015512	0.10063	0.0079423	657.06	0.0015219	1.1480	1.9374	118.01	14.209	26.987	181.75	22.462	9.0054e-06	0.0073809
106.43	0.52274	31764.	3.1482e-05	-3.8299	-3.8135	63.916	19.264	47.557	697.62	-0.25262	0.00015467	0.10049	0.0079168	661.94	0.0015107	1.1483	1.9380	117.95	14.218	27.027	181.79	22.417	9.0173e-06	0.0073946
106.55	0.52682	31744.	3.1502e-05	-3.8247	-3.8081	63.965	19.254	47.588	696.74	-0.25136	0.00015422	0.10035	0.0078914	666.85	0.0014996	1.1485	1.9385	117.90	14.227	27.068	181.84	22.372	9.0292e-06	0.0074083
106.66	0.53093	31724.	3.1522e-05	-3.8195	-3.8028	64.014	19.244	47.619	695.86	-0.25009	0.00015376	0.10020	0.0078659	671.78	0.0014886	1.1487	1.9390	117.85	14.236	27.108	181.88	22.327	9.0412e-06	0.0074221
106.77	0.53506	31704.	3.1542e-05	-3.8143	-3.7974	64.063	19.234	47.650	694.99	-0.24882	0.00015331	0.10006	0.0078405	676.74	0.0014777	1.1489	1.9396	117.80	14.244	27.149	181.92	22.282	9.0532e-06	0.0074360
106.88	0.53921	31684.	3.1562e-05	-3.8090	-3.7920	64.112	19.225	47.681	694.11	-0.24753	0.00015286	0.099912	0.0078150	681.73	0.0014669	1.1491	1.9401	117.74	14.253	27.191	181.96	22.237	9.0652e-06	0.0074498
106.99	0.54339	31663.	3.1582e-05	-3.8038	-3.7867	64.161	19.215	47.712	693.23	-0.24625	0.00015242	0.099768	0.0077896	686.75	0.0014561	1.1494	1.9406	117.69	14.262	27.232	182.00	22.193	9.0772e-06	0.0074638
107.10	0.54759	31643.	3.1602e-05	-3.7986	-3.7813	64.210	19.205	47.744	692.35	-0.24495	0.00015197	0.099624	0.0077642	691.79	0.0014455	1.1496	1.9411	117.64	14.271	27.274	182.05	22.148	9.0892e-06	0.0074777
107.21	0.55181	31623.	3.1622e-05	-3.7934	-3.7759	64.259	19.195	47.776	691.47	-0.24365	0.00015153	0.099479	0.0077389	696.87	0.0014350	1.1497	1.9416	117.59	14.280	27.316	182.09	22.104	9.1013e-06	0.0074917
107.33	0.55606	31603.	3.1643e-05	-3.7881	-3.7705	64.308	19.186	47.808	690.59	-0.24234	0.00015109	0.099335	0.0077135	701.97	0.0014246	1.1499	1.9421	117.53	14.289	27.358	182.13	22.060	9.1133e-06	0.0075058
107.44	0.56033	31583.	3.1663e-05	-3.7829	-3.7652	64.356	19.176	47.840	689.71	-0.24102	0.00015065	0.099191	0.0076882	707.10	0.0014142	1.1501	1.9425	117.48	14.298	27.401	182.17	22.016	9.1254e-06	0.0075199
107.55	0.56463	31562.	3.1683e-05	-3.7777	-3.7598	64.405	19.167	47.872	688.83	-0.23970	0.00015021	0.099047	0.0076629	712.26	0.0014040	1.1503	1.9430	117.43	14.307	27.443	182.21	21.972	9.1375e-06	0.0075341
107.66	0.56894	31542.	3.1704e-05	-3.7724	-3.7544	64.454	19.157	47.905	687.94	-0.23837	0.00014977	0.098903	0.0076376	717.45	0.0013938	1.1505	1.9435	117.38	14.316	27.486	182.25	21.928	9.1496e-06	0.0075483
107.77	0.57329	31522.	3.1724e-05	-3.7672	-3.7490	64.503	19.147	47.938	687.06	-0.23703	0.00014933	0.098759	0.0076123	722.67	0.0013838	1.1506	1.9439	117.33	14.325	27.530	182.29	21.884	9.1618e-06	0.0075625
107.88	0.57765	31501.	3.1745e-05	-3.7619	-3.7436	64.551	19.138	47.971	686.17	-0.23569	0.00014890	0.098615	0.0075870	727.91	0.0013738	1.1508	1.9444	117.27	14.334	27.573	182.33	21.840	9.1739e-06	0.0075768
107.99	0.58205	31481.	3.1765e-05	-3.7567	-3.7382	64.600	19.128	48.004	685.29	-0.23434	0.00014846	0.098471	0.0075618	733.19	0.0013639	1.1509	1.9448	117.22	14.343	27.617	182.37	21.797	9.1861e-06	0.0075911
108.11	0.58646	31460.	3.1786e-05	-3.7514	-3.7328	64.649	19.119	48.037	684.40	-0.23298	0.00014803	0.098327	0.0075366	738.49	0.0013541	1.1511	1.9452	117.17	14.352	27.661	182.41	21.754	9.1983e-06	0.0076055
108.22	0.59090	31440.	3.1807e-05	-3.7462	-3.7274	64.698	19.110	48.071	683.51	-0.23161	0.00014760	0.098183	0.0075114	743.83	0.0013444	1.1512	1.9456	117.12	14.362	27.705	182.45	21.710	9.2105e-06	0.0076200
108.33	0.59536	31420.	3.1827e-05	-3.7409	-3.7220	64.746	19.100	48.105	682.62	-0.23024	0.00014717	0.098040	0.0074862	749.19	0.0013348	1.1514	1.9460	117.07	14.371	27.750	182.48	21.667	9.2227e-06	0.0076345
108.44	0.59985	31399.	3.1848e-05	-3.7357	-3.7166	64.795	19.091	48.139	681.73	-0.22886	0.00014675	0.097896	0.0074610	754.59	0.0013252	1.1515	1.9464	117.02	14.380	27.795	182.52	21.624	9.2349e-06	0.0076490
108.55	0.60437	31379.	3.1869e-05	-3.7304	-3.7112	64.843	19.081	48.173	680.84	-0.22747	0.00014632	0.097752	0.0074359	760.01	0.0013158	1.1516	1.9468	116.97	14.389	27.840	182.56	21.581	9.2472e-06	0.0076636
108.66	0.60890	31358.	3.1890e-05	-3.7252	-3.7057	64.892	19.072	48.208	679.95	-0.22608	0.00014590	0.097608	0.0074107	765.47	0.0013064	1.1517	1.9472	116.91	14.399	27.885	182.60	21.538	9.2594e-06	0.0076783
108.77	0.61347	31337.	3.1911e-05	-3.7199	-3.7003	64.941	19.063	48.242	679.06	-0.22467	0.00014547	0.097465	0.0073856	770.95	0.0012971	1.1518	1.9476	116.86	14.408	27.931	182.64	21.496	9.2717e-06	0.0076929
108.89	0.61805	31317.	3.1932e-05	-3.7146	-3.6949	64.989	19.054	48.277	678.17	-0.22326	0.00014505	0.097321	0.0073605	776.47	0.0012879	1.1520	1.9479	116.81	14.418	27.977	182.67	21.453	9.2840e-06	0.0077077
109.00	0.62267	31296.	3.1953e-05	-3.7093	-3.6895	65.038	19.044	48.313	677.28	-0.22184	0.00014463	0.097177	0.0073355	782.01	0.0012788	1.1521	1.9483	116.76	14.427	28.023	182.71	21.411	9.2964e-06	0.0077225
109.11	0.62730	31276.	3.1974e-05	-3.7041	-3.6840	65.086	19.035	48.348	676.38	-0.22042	0.00014421	0.097034	0.0073104	787.59	0.0012697	1.1522	1.9486	116.71	14.436	28.070	182.75	21.368	9.3087e-06	0.0077373
109.22	0.63196	31255.	3.1995e-05	-3.6988	-3.6786	65.135	19.026	48.384	675.49	-0.21898	0.00014380	0.096890	0.0072854	793.19	0.0012607	1.1522	1.9490	116.66	14.446	28.117	182.78	21.326	9.3211e-06	0.0077522
109.33	0.63665	31234.	3.2016e-05	-3.6935	-3.6731	65.183	19.017	48.419	674.59	-0.21754	0.00014338	0.096747	0.0072603	798.83	0.0012518	1.1523	1.9493	116.61	14.455	28.164	182.82	21.284	9.3334e-06	0.0077672
109.44	0.64136	31214.	3.2037e-05	-3.6882	-3.6677	65.232	19.008	48.456	673.69	-0.21609	0.00014296	0.096603	0.0072353	804.50	0.0012430	1.1524	1.9496	116.56	14.465	28.211	182.86	21.242	9.3458e-06	0.0077822
109.56	0.64610	31193.	3.2059e-05	-3.6829	-3.6622	65.280	18.999	48.492	672.79	-0.21464	0.00014255	0.096460	0.0072104	810.20	0.0012343	1.1525	1.9499	116.51	14.475	28.259	182.89	21.200	9.3583e-06	0.0077972
109.67	0.65086	31172.	3.2080e-05	-3.6776	-3.6568	65.328	18.989	48.528	671.90	-0.21317	0.00014214	0.096317	0.0071854	815.93	0.0012256	1.1525	1.9502	116.46	14.484	28.307	182.93	21.158	9.3707e-06	0.0078123
109.78	0.65565	31151.	3.2101e-05	-3.6724	-3.6513	65.377	18.980	48.565	671.00	-0.21170	0.00014173	0.096173	0.0071605	821.69	0.0012170	1.1526	1.9505	116.41	14.494	28.355	182.96	21.117	9.3832e-06	0.0078275
109.89	0.66046	31130.	3.2123e-05	-3.6671	-3.6458	65.425	18.971	48.602	670.10	-0.21022	0.00014132	0.096030	0.0071355	827.49	0.0012085	1.1526	1.9508	116.35	14.504	28.404	183.00	21.075	9.3956e-06	0.0078427
110.00	0.66530	31110.	3.2144e-05	-3.6618	-3.6404	65.473	18.962	48.639	669.19	-0.20873	0.00014091	0.095887	0.0071106	833.31	0.0012000	1.1527	1.9511	116.30	14.513	28.453	183.03	21.034	9.4081e-06	0.0078580
110.11	0.67017	31089.	3.2166e-05	-3.6565	-3.6349	65.522	18.953	48.677	668.29	-0.20724	0.00014051	0.095743	0.0070857	839.17	0.0011917	1.1527	1.9513	116.25	14.523	28.502	183.07	20.992	9.4206e-06	0.0078733
110.22	0.67506	31068.	3.2188e-05	-3.6512	-3.6294	65.570	18.945	48.715	667.39	-0.20573	0.00014010	0.095600	0.0070609	845.06	0.0011834	1.1528	1.9516	116.20	14.533	28.551	183.10	20.951	9.4332e-06	0.0078887
110.34	0.67997	31047.	3.2209e-05	-3.6458	-3.6239	65.618	18.936	48.753	666.48	-0.20422	0.00013970	0.095457	0.0070360	850.98	0.0011751	1.1528	1.9518	116.15	14.543	28.601	183.14	20.910	9.4457e-06	0.0079041
110.45	0.68491	31026.	3.2231e-05	-3.6405	-3.6185	65.666	18.927	48.791	665.58	-0.20270	0.00013929	0.095314	0.0070112	856.93	0.0011670	1.1528	1.9521	116.10	14.553	28.651	183.17	20.869	9.4583e-06	0.0079196
110.56	0.68988	31005.	3.2253e-05	-3.6352	-3.6130	65.715	18.918	48.829	664.67	-0.20117	0.00013889	0.095171	0.0069864	862.92	0.0011589	1.1528	1.9523	116.05	14.563	28.702	183.20	20.828	9.4709e-06	0.0079352
110.67	0.69487	30984.	3.2275e-05	-3.6299	-3.6075	65.763	18.909	48.868	663.77	-0.19963	0.00013849	0.095028	0.0069616	868.94	0.0011508	1.1528	1.9525	116.00	14.573	28.752	183.24	20.787	9.4835e-06	0.0079508
110.78	0.69989	30963.	3.2297e-05	-3.6246	-3.6020	65.811	18.900	48.907	662.86	-0.19809	0.00013809	0.094885	0.0069368	874.99	0.0011429	1.1528	1.9527	115.95	14.583	28.803	183.27	20.746	9.4961e-06	0.0079664
110.89	0.70494	30942.	3.2319e-05	-3.6193	-3.5965	65.859	18.892	48.946	661.95	-0.19653	0.00013770	0.094742	0.0069121	881.07	0.0011350	1.1528	1.9529	115.90	14.593	28.855	183.30	20.706	9.5088e-06	0.0079821
111.00	0.71001	30921.	3.2341e-05	-3.6139	-3.5910	65.907	18.883	48.986	661.04	-0.19497	0.00013730	0.094599	0.0068873	887.19	0.0011272	1.1528	1.9531	115.85	14.603	28.906	183.33	20.665	9.5215e-06	0.0079979
111.12	0.71511	30899.	3.2363e-05	-3.6086	-3.5855	65.956	18.874	49.025	660.13	-0.19340	0.00013691	0.094456	0.0068626	893.34	0.0011194	1.1528	1.9533	115.80	14.613	28.958	183.37	20.625	9.5342e-06	0.0080137
111.23	0.72023	30878.	3.2385e-05	-3.6033	-3.5799	66.004	18.865	49.065	659.22	-0.19182	0.00013651	0.094313	0.0068379	899.53	0.0011117	1.1528	1.9535	115.75	14.623	29.011	183.40	20.584	9.5469e-06	0.0080296
111.34	0.72539	30857.	3.2407e-05	-3.5979	-3.5744	66.052	18.857	49.105	658.31	-0.19023	0.00013612	0.094171	0.0068132	905.74	0.0011041	1.1527	1.9536	115.70	14.633	29.063	183.43	20.544	9.5596e-06	0.0080456
111.45	0.73056	30836.	3.2430e-05	-3.5926	-3.5689	66.100	18.848	49.146	657.39	-0.18863	0.00013573	0.094028	0.0067886	911.99	0.0010965	1.1527	1.9538	115.65	14.643	29.116	183.46	20.504	9.5724e-06	0.0080616
111.56	0.73577	30815.	3.2452e-05	-3.5872	-3.5634	66.148	18.840	49.187	656.48	-0.18703	0.00013534	0.093885	0.0067639	918.28	0.0010890	1.1527	1.9539	115.60	14.654	29.170	183.49	20.464	9.5852e-06	0.0080776
111.67	0.74100	30793.	3.2475e-05	-3.5819	-3.5578	66.196	18.831	49.228	655.56	-0.18541	0.00013495	0.093742	0.0067393	924.60	0.0010816	1.1526	1.9540	115.55	14.664	29.224	183.52	20.424	9.5980e-06	0.0080938
111.78	0.74626	30772.	3.2497e-05	-3.5765	-3.5523	66.244	18.822	49.269	654.65	-0.18379	0.00013456	0.093600	0.0067147	930.95	0.0010742	1.1526	1.9542	115.50	14.674	29.278	183.55	20.384	9.6108e-06	0.0081100
111.90	0.75154	30751.	3.2520e-05	-3.5712	-3.5468	66.292	18.814	49.311	653.73	-0.18215	0.00013418	0.093457	0.0066901	937.34	0.0010669	1.1525	1.9543	115.45	14.685	29.332	183.58	20.344	9.6237e-06	0.0081262
112.01	0.75685	30729.	3.2542e-05	-3.5658	-3.5412	66.340	18.806	49.352	652.81	-0.18051	0.00013379	0.093315	0.0066656	943.76	0.0010596	1.1524	1.9544	115.40	14.695	29.387	183.61	20.304	9.6365e-06	0.0081425
112.12	0.76219	30708.	3.2565e-05	-3.5605	-3.5357	66.388	18.797	49.394	651.89	-0.17886	0.00013341	0.093172	0.0066410	950.21	0.0010524	1.1524	1.9545	115.36	14.705	29.442	183.64	20.265	9.6494e-06	0.0081589
112.23	0.76756	30686.	3.2588e-05	-3.5551	-3.5301	66.436	18.789	49.437	650.97	-0.17720	0.00013303	0.093030	0.0066165	956.70	0.0010453	1.1523	1.9546	115.31	14.716	29.497	183.67	20.225	9.6623e-06	0.0081753
112.34	0.77295	30665.	3.2611e-05	-3.5497	-3.5245	66.484	18.780	49.479	650.05	-0.17553	0.00013264	0.092887	0.0065920	963.23	0.0010382	1.1522	1.9546	115.26	14.726	29.553	183.70	20.186	9.6753e-06	0.0081918
112.45	0.77837	30643.	3.2633e-05	-3.5444	-3.5190	66.532	18.772	49.522	649.13	-0.17385	0.00013226	0.092745	0.0065675	969.79	0.0010312	1.1521	1.9547	115.21	14.737	29.609	183.73	20.147	9.6882e-06	0.0082084
112.56	0.78382	30622.	3.2656e-05	-3.5390	-3.5134	66.580	18.764	49.566	648.21	-0.17217	0.00013188	0.092603	0.0065431	976.39	0.0010242	1.1520	1.9548	115.16	14.748	29.666	183.76	20.107	9.7012e-06	0.0082250
112.68	0.78929	30600.	3.2679e-05	-3.5336	-3.5078	66.628	18.755	49.609	647.28	-0.17047	0.00013151	0.092460	0.0065186	983.02	0.0010173	1.1519	1.9548	115.11	14.758	29.723	183.79	20.068	9.7142e-06	0.0082417
112.79	0.79480	30579.	3.2702e-05	-3.5282	-3.5023	66.676	18.747	49.653	646.36	-0.16876	0.00013113	0.092318	0.0064942	989.68	0.0010104	1.1518	1.9548	115.06	14.769	29.780	183.82	20.029	9.7272e-06	0.0082584
112.90	0.80033	30557.	3.2726e-05	-3.5229	-3.4967	66.723	18.739	49.697	645.43	-0.16705	0.00013075	0.092176	0.0064698	996.39	0.0010036	1.1516	1.9549	115.01	14.780	29.837	183.85	19.990	9.7403e-06	0.0082752
113.01	0.80588	30536.	3.2749e-05	-3.5175	-3.4911	66.771	18.731	49.741	644.51	-0.16532	0.00013038	0.092034	0.0064454	1003.1	0.00099688	1.1515	1.9549	114.96	14.790	29.895	183.87	19.952	9.7534e-06	0.0082921
113.12	0.81147	30514.	3.2772e-05	-3.5121	-3.4855	66.819	18.722	49.786	643.58	-0.16359	0.00013001	0.091892	0.0064211	1009.9	0.00099020	1.1514	1.9549	114.91	14.801	29.954	183.90	19.913	9.7665e-06	0.0083091
113.23	0.81708	30492.	3.2795e-05	-3.5067	-3.4799	66.867	18.714	49.831	642.65	-0.16184	0.00012963	0.091750	0.0063967	1016.7	0.00098356	1.1512	1.9549	114.86	14.812	30.013	183.93	19.874	9.7796e-06	0.0083261
113.34	0.82272	30470.	3.2819e-05	-3.5013	-3.4743	66.915	18.706	49.876	641.72	-0.16009	0.00012926	0.091608	0.0063724	1023.6	0.00097698	1.1511	1.9549	114.81	14.823	30.072	183.96	19.836	9.7927e-06	0.0083432
113.46	0.82839	30449.	3.2842e-05	-3.4959	-3.4687	66.963	18.698	49.922	640.79	-0.15832	0.00012889	0.091466	0.0063481	1030.4	0.00097046	1.1509	1.9548	114.77	14.834	30.131	183.98	19.797	9.8059e-06	0.0083603
113.57	0.83409	30427.	3.2866e-05	-3.4905	-3.4631	67.010	18.690	49.967	639.86	-0.15655	0.00012852	0.091324	0.0063238	1037.4	0.00096398	1.1507	1.9548	114.72	14.845	30.191	184.01	19.759	9.8191e-06	0.0083775
113.68	0.83981	30405.	3.2889e-05	-3.4851	-3.4575	67.058	18.682	50.014	638.93	-0.15476	0.00012815	0.091182	0.0062996	1044.3	0.00095756	1.1506	1.9547	114.67	14.856	30.252	184.04	19.720	9.8323e-06	0.0083948
113.79	0.84557	30383.	3.2913e-05	-3.4797	-3.4518	67.106	18.674	50.060	637.99	-0.15297	0.00012779	0.091040	0.0062753	1051.3	0.00095119	1.1504	1.9547	114.62	14.867	30.312	184.06	19.682	9.8455e-06	0.0084121
113.90	0.85135	30361.	3.2937e-05	-3.4742	-3.4462	67.154	18.666	50.107	637.06	-0.15116	0.00012742	0.090898	0.0062511	1058.3	0.00094487	1.1502	1.9546	114.57	14.878	30.374	184.09	19.644	9.8588e-06	0.0084295
114.01	0.85716	30339.	3.2961e-05	-3.4688	-3.4406	67.201	18.658	50.154	636.12	-0.14935	0.00012706	0.090756	0.0062269	1065.4	0.00093860	1.1500	1.9545	114.52	14.889	30.435	184.11	19.606	9.8721e-06	0.0084470
114.13	0.86300	30317.	3.2984e-05	-3.4634	-3.4349	67.249	18.650	50.201	635.18	-0.14752	0.00012669	0.090614	0.0062027	1072.5	0.00093238	1.1498	1.9545	114.47	14.900	30.497	184.14	19.568	9.8854e-06	0.0084646
114.24	0.86886	30295.	3.3008e-05	-3.4580	-3.4293	67.297	18.642	50.249	634.25	-0.14569	0.00012633	0.090473	0.0061786	1079.7	0.00092621	1.1496	1.9544	114.42	14.911	30.559	184.16	19.530	9.8988e-06	0.0084822
114.35	0.87476	30273.	3.3032e-05	-3.4525	-3.4237	67.345	18.635	50.297	633.31	-0.14384	0.00012597	0.090331	0.0061545	1086.9	0.00092009	1.1494	1.9542	114.38	14.923	30.622	184.19	19.492	9.9121e-06	0.0084999
114.46	0.88068	30251.	3.3057e-05	-3.4471	-3.4180	67.392	18.627	50.345	632.37	-0.14199	0.00012561	0.090190	0.0061303	1094.1	0.00091402	1.1492	1.9541	114.33	14.934	30.685	184.21	19.454	9.9255e-06	0.0085177
114.57	0.88664	30229.	3.3081e-05	-3.4417	-3.4123	67.440	18.619	50.394	631.42	-0.14012	0.00012525	0.090048	0.0061062	1101.3	0.00090799	1.1489	1.9540	114.28	14.945	30.749	184.24	19.417	9.9389e-06	0.0085355
114.68	0.89262	30207.	3.3105e-05	-3.4362	-3.4067	67.488	18.611	50.443	630.48	-0.13824	0.00012489	0.089906	0.0060822	1108.6	0.00090201	1.1487	1.9539	114.23	14.957	30.813	184.26	19.379	9.9524e-06	0.0085534
114.79	0.89863	30185.	3.3129e-05	-3.4308	-3.4010	67.535	18.603	50.492	629.54	-0.13635	0.00012453	0.089765	0.0060581	1116.0	0.00089608	1.1485	1.9537	114.18	14.968	30.878	184.28	19.342	9.9659e-06	0.0085714
114.91	0.90467	30163.	3.3154e-05	-3.4253	-3.3953	67.583	18.596	50.542	628.59	-0.13446	0.00012418	0.089624	0.0060341	1123.3	0.00089020	1.1482	1.9535	114.13	14.979	30.943	184.31	19.304	9.9794e-06	0.0085895
115.02	0.91074	30140.	3.3178e-05	-3.4199	-3.3897	67.631	18.588	50.592	627.65	-0.13255	0.00012382	0.089482	0.0060101	1130.8	0.00088436	1.1479	1.9534	114.08	14.991	31.008	184.33	19.267	9.9929e-06	0.0086076
115.13	0.91684	30118.	3.3203e-05	-3.4144	-3.3840	67.678	18.581	50.642	626.70	-0.13063	0.00012347	0.089341	0.0059861	1138.2	0.00087857	1.1477	1.9532	114.04	15.002	31.074	184.35	19.229	1.0006e-05	0.0086258
115.24	0.92296	30096.	3.3227e-05	-3.4090	-3.3783	67.726	18.573	50.693	625.75	-0.12869	0.00012311	0.089200	0.0059621	1145.7	0.00087283	1.1474	1.9530	113.99	15.014	31.140	184.38	19.192	1.0020e-05	0.0086441
115.35	0.92912	30073.	3.3252e-05	-3.4035	-3.3726	67.773	18.565	50.744	624.81	-0.12675	0.00012276	0.089058	0.0059382	1153.2	0.00086712	1.1471	1.9528	113.94	15.026	31.207	184.40	19.155	1.0034e-05	0.0086624
115.46	0.93531	30051.	3.3277e-05	-3.3980	-3.3669	67.821	18.558	50.795	623.86	-0.12480	0.00012241	0.088917	0.0059142	1160.8	0.00086147	1.1468	1.9526	113.89	15.037	31.274	184.42	19.118	1.0047e-05	0.0086809
115.57	0.94152	30029.	3.3302e-05	-3.3925	-3.3612	67.869	18.550	50.847	622.90	-0.12283	0.00012206	0.088776	0.0058903	1168.4	0.00085585	1.1465	1.9523	113.84	15.049	31.342	184.44	19.081	1.0061e-05	0.0086994
115.69	0.94777	30006.	3.3326e-05	-3.3871	-3.3555	67.916	18.543	50.899	621.95	-0.12086	0.00012171	0.088635	0.0058664	1176.1	0.00085028	1.1462	1.9521	113.80	15.061	31.410	184.46	19.044	1.0075e-05	0.0087179
115.80	0.95404	29984.	3.3351e-05	-3.3816	-3.3498	67.964	18.536	50.952	621.00	-0.11887	0.00012136	0.088494	0.0058426	1183.8	0.00084476	1.1459	1.9519	113.75	15.073	31.479	184.48	19.007	1.0088e-05	0.0087366
115.91	0.96035	29961.	3.3377e-05	-3.3761	-3.3441	68.011	18.528	51.004	620.05	-0.11687	0.00012102	0.088353	0.0058187	1191.5	0.00083927	1.1456	1.9516	113.70	15.084	31.548	184.51	18.971	1.0102e-05	0.0087553
116.02	0.96668	29939.	3.3402e-05	-3.3706	-3.3383	68.059	18.521	51.058	619.09	-0.11486	0.00012067	0.088212	0.0057949	1199.3	0.00083383	1.1453	1.9513	113.65	15.096	31.617	184.53	18.934	1.0116e-05	0.0087742
116.13	0.97305	29916.	3.3427e-05	-3.3651	-3.3326	68.106	18.513	51.111	618.13	-0.11283	0.00012032	0.088071	0.0057711	1207.1	0.00082843	1.1449	1.9510	113.60	15.108	31.687	184.55	18.897	1.0130e-05	0.0087931
116.24	0.97944	29893.	3.3452e-05	-3.3596	-3.3269	68.154	18.506	51.165	617.18	-0.11080	0.00011998	0.087930	0.0057473	1215.0	0.00082307	1.1446	1.9508	113.56	15.120	31.758	184.57	18.861	1.0143e-05	0.0088120
116.35	0.98586	29871.	3.3478e-05	-3.3541	-3.3211	68.202	18.499	51.219	616.22	-0.10875	0.00011964	0.087789	0.0057235	1222.9	0.00081775	1.1443	1.9504	113.51	15.132	31.829	184.59	18.824	1.0157e-05	0.0088311
116.47	0.99232	29848.	3.3503e-05	-3.3486	-3.3154	68.249	18.492	51.274	615.26	-0.10669	0.00011929	0.087648	0.0056998	1230.8	0.00081248	1.1439	1.9501	113.46	15.144	31.901	184.61	18.788	1.0171e-05	0.0088502
116.58	0.99880	29825.	3.3529e-05	-3.3431	-3.3096	68.297	18.484	51.329	614.30	-0.10462	0.00011895	0.087507	0.0056761	1238.8	0.00080724	1.1435	1.9498	113.41	15.157	31.973	184.63	18.752	1.0185e-05	0.0088695
116.69	1.0053	29803.	3.3554e-05	-3.3376	-3.3039	68.344	18.477	51.384	613.33	-0.10254	0.00011861	0.087367	0.0056524	1246.8	0.00080204	1.1432	1.9495	113.36	15.169	32.045	184.64	18.715	1.0199e-05	0.0088888
116.80	1.0119	29780.	3.3580e-05	-3.3321	-3.2981	68.392	18.470	51.440	612.37	-0.10045	0.00011827	0.087226	0.0056287	1254.9	0.00079689	1.1428	1.9491	113.32	15.181	32.118	184.66	18.679	1.0213e-05	0.0089081
116.91	1.0184	29757.	3.3606e-05	-3.3265	-3.2923	68.439	18.463	51.496	611.40	-0.098340	0.00011793	0.087085	0.0056051	1263.0	0.00079177	1.1424	1.9488	113.27	15.193	32.192	184.68	18.643	1.0227e-05	0.0089276
117.02	1.0250	29734.	3.3632e-05	-3.3210	-3.2865	68.487	18.456	51.553	610.44	-0.096220	0.00011759	0.086945	0.0055814	1271.1	0.00078669	1.1420	1.9484	113.22	15.205	32.266	184.70	18.607	1.0241e-05	0.0089472
117.13	1.0317	29711.	3.3657e-05	-3.3155	-3.2808	68.534	18.449	51.610	609.47	-0.094088	0.00011726	0.086804	0.0055578	1279.3	0.00078165	1.1416	1.9480	113.17	15.218	32.341	184.72	18.571	1.0255e-05	0.0089668
117.25	1.0384	29688.	3.3683e-05	-3.3099	-3.2750	68.581	18.442	51.667	608.50	-0.091943	0.00011692	0.086664	0.0055342	1287.6	0.00077665	1.1412	1.9476	113.13	15.230	32.416	184.74	18.535	1.0269e-05	0.0089865
117.36	1.0450	29665.	3.3710e-05	-3.3044	-3.2692	68.629	18.435	51.725	607.53	-0.089786	0.00011659	0.086523	0.0055107	1295.9	0.00077168	1.1407	1.9472	113.08	15.243	32.492	184.75	18.499	1.0283e-05	0.0090063
117.47	1.0518	29642.	3.3736e-05	-3.2989	-3.2634	68.676	18.428	51.783	606.56	-0.087616	0.00011625	0.086383	0.0054871	1304.2	0.00076675	1.1403	1.9468	113.03	15.255	32.568	184.77	18.464	1.0298e-05	0.0090262
117.58	1.0585	29619.	3.3762e-05	-3.2933	-3.2576	68.724	18.421	51.842	605.59	-0.085433	0.00011592	0.086243	0.0054636	1312.6	0.00076186	1.1399	1.9463	112.98	15.268	32.645	184.79	18.428	1.0312e-05	0.0090462
117.69	1.0653	29596.	3.3788e-05	-3.2878	-3.2518	68.771	18.415	51.901	604.62	-0.083237	0.00011559	0.086102	0.0054401	1321.0	0.00075701	1.1394	1.9459	112.93	15.280	32.722	184.80	18.392	1.0326e-05	0.0090663
117.80	1.0722	29573.	3.3815e-05	-3.2822	-3.2459	68.819	18.408	51.961	603.64	-0.081027	0.00011525	0.085962	0.0054166	1329.4	0.00075219	1.1390	1.9454	112.89	15.293	32.800	184.82	18.357	1.0340e-05	0.0090864
117.92	1.0790	29550.	3.3841e-05	-3.2766	-3.2401	68.866	18.401	52.020	602.67	-0.078805	0.00011492	0.085822	0.0053932	1338.0	0.00074741	1.1385	1.9450	112.84	15.306	32.879	184.84	18.321	1.0354e-05	0.0091067
118.03	1.0859	29526.	3.3868e-05	-3.2711	-3.2343	68.914	18.394	52.081	601.69	-0.076569	0.00011459	0.085682	0.0053698	1346.5	0.00074267	1.1380	1.9445	112.79	15.319	32.958	184.85	18.286	1.0369e-05	0.0091270
118.14	1.0928	29503.	3.3895e-05	-3.2655	-3.2285	68.961	18.388	52.142	600.71	-0.074320	0.00011427	0.085542	0.0053463	1355.1	0.00073795	1.1376	1.9440	112.74	15.331	33.038	184.87	18.250	1.0383e-05	0.0091474
118.25	1.0998	29480.	3.3922e-05	-3.2599	-3.2226	69.009	18.381	52.203	599.73	-0.072057	0.00011394	0.085402	0.0053230	1363.7	0.00073328	1.1371	1.9435	112.70	15.344	33.118	184.88	18.215	1.0398e-05	0.0091680
118.36	1.1067	29456.	3.3948e-05	-3.2543	-3.2168	69.056	18.374	52.264	598.75	-0.069781	0.00011361	0.085261	0.0052996	1372.4	0.00072864	1.1366	1.9430	112.65	15.357	33.199	184.90	18.180	1.0412e-05	0.0091886
118.47	1.1137	29433.	3.3975e-05	-3.2487	-3.2109	69.103	18.368	52.326	597.77	-0.067491	0.00011328	0.085121	0.0052762	1381.2	0.00072403	1.1361	1.9425	112.60	15.370	33.280	184.91	18.144	1.0426e-05	0.0092093
118.58	1.1208	29410.	3.4003e-05	-3.2432	-3.2050	69.151	18.361	52.389	596.79	-0.065187	0.00011296	0.084982	0.0052529	1389.9	0.00071946	1.1356	1.9419	112.55	15.383	33.363	184.93	18.109	1.0441e-05	0.0092301
118.70	1.1279	29386.	3.4030e-05	-3.2376	-3.1992	69.198	18.355	52.452	595.81	-0.062869	0.00011263	0.084842	0.0052296	1398.8	0.00071492	1.1350	1.9414	112.51	15.396	33.445	184.94	18.074	1.0455e-05	0.0092510
118.81	1.1350	29363.	3.4057e-05	-3.2320	-3.1933	69.246	18.348	52.515	594.82	-0.060537	0.00011231	0.084702	0.0052063	1407.6	0.00071041	1.1345	1.9408	112.46	15.409	33.529	184.95	18.039	1.0470e-05	0.0092720
118.92	1.1421	29339.	3.4084e-05	-3.2264	-3.1874	69.293	18.342	52.579	593.83	-0.058191	0.00011199	0.084562	0.0051831	1416.5	0.00070594	1.1340	1.9402	112.41	15.423	33.613	184.97	18.004	1.0485e-05	0.0092930
119.03	1.1493	29315.	3.4112e-05	-3.2207	-3.1815	69.341	18.335	52.644	592.85	-0.055831	0.00011166	0.084422	0.0051599	1425.5	0.00070150	1.1334	1.9396	112.36	15.436	33.697	184.98	17.969	1.0499e-05	0.0093142
119.14	1.1565	29292.	3.4139e-05	-3.2151	-3.1756	69.388	18.329	52.709	591.86	-0.053456	0.00011134	0.084283	0.0051367	1434.5	0.00069709	1.1329	1.9390	112.32	15.449	33.782	184.99	17.934	1.0514e-05	0.0093355
119.25	1.1637	29268.	3.4167e-05	-3.2095	-3.1697	69.435	18.323	52.774	590.86	-0.051067	0.00011102	0.084143	0.0051135	1443.6	0.00069272	1.1323	1.9384	112.27	15.462	33.868	185.01	17.900	1.0528e-05	0.0093569
119.36	1.1710	29244.	3.4195e-05	-3.2039	-3.1638	69.483	18.316	52.840	589.87	-0.048662	0.00011070	0.084003	0.0050903	1452.7	0.00068838	1.1317	1.9378	112.22	15.476	33.955	185.02	17.865	1.0543e-05	0.0093783
119.48	1.1783	29221.	3.4222e-05	-3.1983	-3.1579	69.530	18.310	52.906	588.88	-0.046244	0.00011038	0.083864	0.0050672	1461.9	0.00068406	1.1311	1.9372	112.18	15.489	34.042	185.03	17.830	1.0558e-05	0.0093999
119.59	1.1856	29197.	3.4250e-05	-3.1926	-3.1520	69.578	18.304	52.973	587.89	-0.043810	0.00011007	0.083724	0.0050441	1471.1	0.00067978	1.1306	1.9365	112.13	15.503	34.130	185.04	17.795	1.0573e-05	0.0094216
119.70	1.1930	29173.	3.4278e-05	-3.1870	-3.1461	69.625	18.298	53.040	586.89	-0.041361	0.00010975	0.083585	0.0050210	1480.3	0.00067553	1.1300	1.9358	112.08	15.516	34.218	185.06	17.761	1.0588e-05	0.0094433
119.81	1.2004	29149.	3.4306e-05	-3.1813	-3.1402	69.672	18.292	53.108	585.89	-0.038897	0.00010943	0.083445	0.0049979	1489.6	0.00067132	1.1293	1.9352	112.03	15.530	34.308	185.07	17.726	1.0602e-05	0.0094652
119.92	1.2078	29125.	3.4335e-05	-3.1757	-3.1342	69.720	18.286	53.176	584.89	-0.036418	0.00010912	0.083306	0.0049748	1499.0	0.00066713	1.1287	1.9345	111.99	15.544	34.398	185.08	17.692	1.0617e-05	0.0094872
120.03	1.2153	29101.	3.4363e-05	-3.1700	-3.1283	69.767	18.280	53.245	583.89	-0.033923	0.00010880	0.083167	0.0049518	1508.4	0.00066297	1.1281	1.9338	111.94	15.557	34.488	185.09	17.657	1.0632e-05	0.0095093
120.14	1.2228	29077.	3.4391e-05	-3.1644	-3.1223	69.815	18.274	53.315	582.89	-0.031413	0.00010849	0.083027	0.0049288	1517.8	0.00065884	1.1275	1.9331	111.89	15.571	34.579	185.10	17.623	1.0647e-05	0.0095315
120.26	1.2303	29053.	3.4420e-05	-3.1587	-3.1164	69.862	18.268	53.385	581.89	-0.028888	0.00010817	0.082888	0.0049058	1527.3	0.00065474	1.1268	1.9323	111.84	15.585	34.672	185.11	17.589	1.0662e-05	0.0095537
120.37	1.2378	29029.	3.4448e-05	-3.1530	-3.1104	69.910	18.262	53.455	580.88	-0.026346	0.00010786	0.082749	0.0048829	1536.9	0.00065067	1.1262	1.9316	111.80	15.599	34.764	185.12	17.554	1.0677e-05	0.0095761
120.48	1.2454	29005.	3.4477e-05	-3.1474	-3.1044	69.957	18.256	53.526	579.88	-0.023788	0.00010755	0.082610	0.0048600	1546.5	0.00064663	1.1255	1.9308	111.75	15.613	34.858	185.13	17.520	1.0692e-05	0.0095986
120.59	1.2531	28981.	3.4506e-05	-3.1417	-3.0984	70.004	18.250	53.598	578.87	-0.021215	0.00010724	0.082471	0.0048370	1556.1	0.00064262	1.1248	1.9301	111.70	15.627	34.952	185.14	17.486	1.0708e-05	0.0096212
120.70	1.2607	28956.	3.4535e-05	-3.1360	-3.0925	70.052	18.244	53.670	577.86	-0.018625	0.00010693	0.082331	0.0048142	1565.8	0.00063864	1.1241	1.9293	111.66	15.641	35.047	185.15	17.452	1.0723e-05	0.0096440
120.81	1.2684	28932.	3.4564e-05	-3.1303	-3.0865	70.099	18.238	53.742	576.85	-0.016019	0.00010662	0.082192	0.0047913	1575.6	0.00063468	1.1234	1.9285	111.61	15.655	35.143	185.16	17.418	1.0738e-05	0.0096668
120.92	1.2761	28908.	3.4593e-05	-3.1246	-3.0805	70.147	18.233	53.815	575.84	-0.013396	0.00010631	0.082053	0.0047685	1585.4	0.00063076	1.1227	1.9277	111.56	15.669	35.239	185.16	17.384	1.0753e-05	0.0096897
121.04	1.2839	28883.	3.4622e-05	-3.1189	-3.0745	70.194	18.227	53.889	574.83	-0.010757	0.00010600	0.081915	0.0047457	1595.3	0.00062686	1.1220	1.9269	111.51	15.684	35.336	185.17	17.350	1.0769e-05	0.0097128
121.15	1.2917	28859.	3.4651e-05	-3.1132	-3.0684	70.242	18.221	53.963	573.82	-0.0081011	0.00010569	0.081776	0.0047229	1605.2	0.00062299	1.1213	1.9260	111.47	15.698	35.434	185.18	17.316	1.0784e-05	0.0097359
121.26	1.2995	28834.	3.4681e-05	-3.1075	-3.0624	70.289	18.216	54.038	572.80	-0.0054282	0.00010539	0.081637	0.0047001	1615.1	0.00061914	1.1206	1.9252	111.42	15.712	35.533	185.19	17.282	1.0799e-05	0.0097592
121.37	1.3074	28810.	3.4710e-05	-3.1018	-3.0564	70.336	18.210	54.114	571.78	-0.0027383	0.00010508	0.081498	0.0046774	1625.2	0.00061533	1.1198	1.9243	111.37	15.727	35.633	185.20	17.248	1.0815e-05	0.0097826
121.48	1.3153	28785.	3.4740e-05	-3.0960	-3.0504	70.384	18.205	54.190	570.77	-3.1081e-05	0.00010478	0.081359	0.0046546	1635.2	0.00061154	1.1191	1.9234	111.33	15.741	35.733	185.20	17.214	1.0830e-05	0.0098061
121.59	1.3232	28761.	3.4770e-05	-3.0903	-3.0443	70.431	18.199	54.267	569.75	0.0026935	0.00010447	0.081221	0.0046320	1645.3	0.00060777	1.1183	1.9225	111.28	15.756	35.834	185.21	17.181	1.0846e-05	0.0098297
121.71	1.3312	28736.	3.4800e-05	-3.0846	-3.0383	70.479	18.194	54.344	568.73	0.0054355	0.00010417	0.081082	0.0046093	1655.5	0.00060404	1.1176	1.9216	111.23	15.771	35.936	185.22	17.147	1.0861e-05	0.0098534
121.82	1.3392	28711.	3.4830e-05	-3.0788	-3.0322	70.526	18.189	54.422	567.70	0.0081952	0.00010387	0.080943	0.0045866	1665.8	0.00060033	1.1168	1.9207	111.19	15.785	36.039	185.22	17.113	1.0877e-05	0.0098773
121.93	1.3472	28686.	3.4860e-05	-3.0731	-3.0261	70.574	18.183	54.500	566.68	0.010973	0.00010356	0.080805	0.0045640	1676.0	0.00059664	1.1160	1.9198	111.14	15.800	36.143	185.23	17.080	1.0892e-05	0.0099012
122.04	1.3553	28662.	3.4890e-05	-3.0673	-3.0201	70.621	18.178	54.579	565.65	0.013768	0.00010326	0.080666	0.0045414	1686.4	0.00059298	1.1152	1.9188	111.09	15.815	36.248	185.23	17.046	1.0908e-05	0.0099253
122.15	1.3634	28637.	3.4920e-05	-3.0616	-3.0140	70.669	18.173	54.659	564.63	0.016582	0.00010296	0.080528	0.0045189	1696.8	0.00058935	1.1144	1.9179	111.04	15.830	36.353	185.24	17.012	1.0924e-05	0.0099495
122.26	1.3715	28612.	3.4951e-05	-3.0558	-3.0079	70.716	18.168	54.740	563.60	0.019414	0.00010266	0.080389	0.0044963	1707.2	0.00058574	1.1136	1.9169	111.00	15.845	36.459	185.24	16.979	1.0939e-05	0.0099738
122.37	1.3797	28587.	3.4981e-05	-3.0500	-3.0018	70.764	18.162	54.821	562.57	0.022264	0.00010236	0.080251	0.0044738	1717.8	0.00058216	1.1127	1.9159	110.95	15.860	36.567	185.25	16.945	1.0955e-05	0.0099983
122.49	1.3879	28562.	3.5012e-05	-3.0443	-2.9957	70.811	18.157	54.902	561.54	0.025133	0.00010206	0.080113	0.0044513	1728.3	0.00057860	1.1119	1.9149	110.90	15.875	36.675	185.25	16.912	1.0971e-05	0.010023
122.60	1.3961	28537.	3.5042e-05	-3.0385	-2.9896	70.859	18.152	54.985	560.50	0.028021	0.00010177	0.079974	0.0044288	1738.9	0.00057506	1.1110	1.9139	110.86	15.890	36.784	185.26	16.879	1.0987e-05	0.010048
122.71	1.4044	28512.	3.5073e-05	-3.0327	-2.9834	70.906	18.147	55.068	559.47	0.030928	0.00010147	0.079836	0.0044064	1749.6	0.00057155	1.1102	1.9129	110.81	15.905	36.894	185.26	16.845	1.1003e-05	0.010072
122.82	1.4127	28487.	3.5104e-05	-3.0269	-2.9773	70.954	18.142	55.152	558.43	0.033854	0.00010117	0.079698	0.0043839	1760.4	0.00056807	1.1093	1.9118	110.76	15.921	37.005	185.27	16.812	1.1019e-05	0.010097
122.93	1.4210	28461.	3.5135e-05	-3.0211	-2.9712	71.001	18.137	55.236	557.39	0.036799	0.00010088	0.079560	0.0043615	1771.2	0.00056460	1.1084	1.9107	110.71	15.936	37.116	185.27	16.779	1.1035e-05	0.010122
123.04	1.4294	28436.	3.5167e-05	-3.0153	-2.9650	71.049	18.133	55.321	556.35	0.039764	0.00010058	0.079422	0.0043392	1782.0	0.00056116	1.1075	1.9097	110.67	15.951	37.229	185.27	16.745	1.1051e-05	0.010148
123.15	1.4378	28411.	3.5198e-05	-3.0095	-2.9589	71.097	18.128	55.407	555.31	0.042749	0.00010029	0.079284	0.0043168	1792.9	0.00055775	1.1066	1.9086	110.62	15.967	37.343	185.28	16.712	1.1067e-05	0.010173
123.27	1.4463	28385.	3.5229e-05	-3.0037	-2.9527	71.144	18.123	55.493	554.27	0.045753	9.9992e-05	0.079146	0.0042945	1803.9	0.00055436	1.1057	1.9075	110.57	15.982	37.458	185.28	16.679	1.1083e-05	0.010198
123.38	1.4548	28360.	3.5261e-05	-2.9979	-2.9466	71.192	18.118	55.581	553.23	0.048777	9.9698e-05	0.079008	0.0042722	1814.9	0.00055099	1.1048	1.9063	110.53	15.998	37.573	185.28	16.646	1.1099e-05	0.010224
123.49	1.4633	28334.	3.5293e-05	-2.9920	-2.9404	71.239	18.114	55.669	552.18	0.051822	9.9406e-05	0.078870	0.0042499	1826.0	0.00054764	1.1039	1.9052	110.48	16.014	37.690	185.28	16.613	1.1116e-05	0.010250
123.60	1.4718	28309.	3.5325e-05	-2.9862	-2.9342	71.287	18.109	55.757	551.13	0.054887	9.9114e-05	0.078732	0.0042277	1837.2	0.00054432	1.1029	1.9041	110.43	16.030	37.808	185.28	16.580	1.1132e-05	0.010276
123.71	1.4804	28283.	3.5357e-05	-2.9803	-2.9280	71.335	18.104	55.847	550.08	0.057973	9.8823e-05	0.078594	0.0042055	1848.4	0.00054102	1.1020	1.9029	110.38	16.045	37.926	185.28	16.547	1.1148e-05	0.010302
123.82	1.4891	28258.	3.5389e-05	-2.9745	-2.9218	71.382	18.100	55.937	549.03	0.061079	9.8532e-05	0.078457	0.0041833	1859.6	0.00053774	1.1010	1.9017	110.34	16.061	38.046	185.29	16.514	1.1165e-05	0.010328
123.93	1.4977	28232.	3.5421e-05	-2.9686	-2.9156	71.430	18.096	56.028	547.98	0.064206	9.8242e-05	0.078319	0.0041611	1871.0	0.00053448	1.1000	1.9005	110.29	16.077	38.167	185.29	16.481	1.1181e-05	0.010354
124.05	1.5064	28206.	3.5453e-05	-2.9628	-2.9094	71.478	18.091	56.120	546.93	0.067355	9.7953e-05	0.078181	0.0041389	1882.4	0.00053125	1.0990	1.8993	110.24	16.093	38.289	185.29	16.448	1.1198e-05	0.010380
124.16	1.5151	28180.	3.5486e-05	-2.9569	-2.9031	71.525	18.087	56.212	545.87	0.070525	9.7664e-05	0.078043	0.0041168	1893.8	0.00052804	1.0980	1.8981	110.20	16.110	38.412	185.29	16.415	1.1214e-05	0.010407
124.27	1.5239	28154.	3.5518e-05	-2.9510	-2.8969	71.573	18.082	56.306	544.81	0.073717	9.7376e-05	0.077906	0.0040947	1905.3	0.00052484	1.0970	1.8968	110.15	16.126	38.536	185.29	16.382	1.1231e-05	0.010434
124.38	1.5327	28129.	3.5551e-05	-2.9452	-2.8907	71.621	18.078	56.400	543.75	0.076930	9.7089e-05	0.077768	0.0040727	1916.9	0.00052167	1.0960	1.8956	110.10	16.142	38.661	185.29	16.349	1.1248e-05	0.010460
124.49	1.5416	28103.	3.5584e-05	-2.9393	-2.8844	71.668	18.074	56.495	542.69	0.080166	9.6802e-05	0.077631	0.0040506	1928.5	0.00051853	1.0950	1.8943	110.05	16.159	38.787	185.28	16.316	1.1264e-05	0.010487
124.60	1.5504	28077.	3.5617e-05	-2.9334	-2.8782	71.716	18.070	56.591	541.63	0.083423	9.6515e-05	0.077493	0.0040286	1940.3	0.00051540	1.0939	1.8930	110.01	16.175	38.914	185.28	16.284	1.1281e-05	0.010515
124.71	1.5594	28050.	3.5650e-05	-2.9275	-2.8719	71.764	18.066	56.687	540.56	0.086703	9.6230e-05	0.077356	0.0040066	1952.0	0.00051229	1.0929	1.8917	109.96	16.192	39.043	185.28	16.251	1.1298e-05	0.010542
124.83	1.5683	28024.	3.5683e-05	-2.9216	-2.8656	71.812	18.062	56.785	539.50	0.090006	9.5945e-05	0.077219	0.0039847	1963.9	0.00050920	1.0918	1.8904	109.91	16.208	39.173	185.28	16.218	1.1315e-05	0.010569
124.94	1.5773	27998.	3.5717e-05	-2.9157	-2.8593	71.859	18.058	56.883	538.43	0.093332	9.5661e-05	0.077081	0.0039627	1975.8	0.00050614	1.0907	1.8890	109.87	16.225	39.304	185.28	16.186	1.1332e-05	0.010597
125.05	1.5863	27972.	3.5750e-05	-2.9097	-2.8530	71.907	18.054	56.982	537.36	0.096681	9.5377e-05	0.076944	0.0039408	1987.7	0.00050309	1.0896	1.8877	109.82	16.242	39.436	185.28	16.153	1.1349e-05	0.010625
125.16	1.5954	27945.	3.5784e-05	-2.9038	-2.8467	71.955	18.050	57.082	536.29	0.10005	9.5094e-05	0.076807	0.0039189	1999.7	0.00050006	1.0885	1.8863	109.77	16.259	39.569	185.27	16.120	1.1366e-05	0.010652
125.27	1.6045	27919.	3.5818e-05	-2.8979	-2.8404	72.003	18.046	57.183	535.22	0.10345	9.4811e-05	0.076670	0.0038971	2011.8	0.00049706	1.0874	1.8849	109.72	16.275	39.703	185.27	16.088	1.1383e-05	0.010680
125.38	1.6136	27893.	3.5852e-05	-2.8919	-2.8341	72.051	18.042	57.285	534.14	0.10687	9.4529e-05	0.076533	0.0038752	2024.0	0.00049407	1.0863	1.8835	109.68	16.292	39.839	185.27	16.055	1.1400e-05	0.010709
125.50	1.6228	27866.	3.5886e-05	-2.8860	-2.8277	72.099	18.039	57.388	533.07	0.11031	9.4248e-05	0.076395	0.0038534	2036.2	0.00049111	1.0851	1.8821	109.63	16.310	39.976	185.26	16.022	1.1417e-05	0.010737
125.61	1.6320	27840.	3.5920e-05	-2.8800	-2.8214	72.147	18.035	57.491	531.99	0.11378	9.3967e-05	0.076258	0.0038317	2048.5	0.00048816	1.0840	1.8806	109.58	16.327	40.114	185.26	15.990	1.1434e-05	0.010765
125.72	1.6412	27813.	3.5955e-05	-2.8741	-2.8150	72.194	18.032	57.596	530.91	0.11727	9.3687e-05	0.076121	0.0038099	2060.9	0.00048523	1.0828	1.8792	109.53	16.344	40.254	185.25	15.957	1.1452e-05	0.010794
125.83	1.6505	27786.	3.5989e-05	-2.8681	-2.8087	72.242	18.028	57.701	529.82	0.12079	9.3407e-05	0.075984	0.0037882	2073.3	0.00048232	1.0816	1.8777	109.49	16.361	40.395	185.25	15.925	1.1469e-05	0.010823
125.94	1.6598	27759.	3.6024e-05	-2.8621	-2.8023	72.290	18.025	57.808	528.74	0.12433	9.3128e-05	0.075848	0.0037665	2085.8	0.00047943	1.0805	1.8762	109.44	16.379	40.537	185.24	15.892	1.1486e-05	0.010852
126.05	1.6692	27733.	3.6059e-05	-2.8561	-2.7959	72.338	18.021	57.915	527.65	0.12790	9.2850e-05	0.075711	0.0037448	2098.4	0.00047656	1.0793	1.8747	109.39	16.396	40.681	185.24	15.860	1.1504e-05	0.010881
126.16	1.6786	27706.	3.6094e-05	-2.8501	-2.7895	72.386	18.018	58.024	526.57	0.13149	9.2572e-05	0.075574	0.0037232	2111.0	0.00047370	1.0780	1.8732	109.34	16.414	40.825	185.23	15.827	1.1521e-05	0.010910
126.28	1.6880	27679.	3.6129e-05	-2.8441	-2.7831	72.434	18.015	58.133	525.48	0.13511	9.2294e-05	0.075437	0.0037016	2123.7	0.00047087	1.0768	1.8717	109.30	16.432	40.972	185.23	15.795	1.1539e-05	0.010940
126.39	1.6975	27652.	3.6164e-05	-2.8381	-2.7767	72.482	18.011	58.244	524.38	0.13875	9.2018e-05	0.075300	0.0036800	2136.5	0.00046805	1.0756	1.8701	109.25	16.449	41.119	185.22	15.763	1.1557e-05	0.010969
126.50	1.7070	27625.	3.6200e-05	-2.8321	-2.7703	72.530	18.008	58.355	523.29	0.14243	9.1741e-05	0.075164	0.0036584	2149.4	0.00046526	1.0743	1.8685	109.20	16.467	41.269	185.21	15.730	1.1574e-05	0.010999
126.61	1.7166	27598.	3.6235e-05	-2.8261	-2.7639	72.578	18.005	58.468	522.20	0.14612	9.1466e-05	0.075027	0.0036369	2162.3	0.00046248	1.0731	1.8669	109.15	16.485	41.419	185.21	15.698	1.1592e-05	0.011029
126.72	1.7261	27570.	3.6271e-05	-2.8200	-2.7574	72.627	18.002	58.581	521.10	0.14985	9.1191e-05	0.074890	0.0036154	2175.3	0.00045971	1.0718	1.8653	109.11	16.503	41.571	185.20	15.665	1.1610e-05	0.011059
126.83	1.7358	27543.	3.6307e-05	-2.8140	-2.7510	72.675	17.999	58.696	520.00	0.15360	9.0916e-05	0.074754	0.0035939	2188.3	0.00045697	1.0705	1.8637	109.06	16.521	41.725	185.19	15.633	1.1628e-05	0.011090
126.94	1.7454	27516.	3.6343e-05	-2.8080	-2.7445	72.723	17.996	58.812	518.90	0.15738	9.0642e-05	0.074617	0.0035725	2201.5	0.00045424	1.0692	1.8620	109.01	16.540	41.880	185.19	15.601	1.1646e-05	0.011120
127.06	1.7551	27488.	3.6379e-05	-2.8019	-2.7380	72.771	17.993	58.929	517.79	0.16118	9.0368e-05	0.074481	0.0035510	2214.7	0.00045153	1.0679	1.8604	108.96	16.558	42.036	185.18	15.568	1.1664e-05	0.011151
127.17	1.7649	27461.	3.6415e-05	-2.7958	-2.7316	72.819	17.991	59.047	516.69	0.16502	9.0095e-05	0.074344	0.0035296	2228.0	0.00044884	1.0666	1.8587	108.92	16.576	42.194	185.17	15.536	1.1682e-05	0.011182
127.28	1.7746	27433.	3.6452e-05	-2.7898	-2.7251	72.867	17.988	59.166	515.58	0.16888	8.9823e-05	0.074208	0.0035083	2241.3	0.00044616	1.0652	1.8570	108.87	16.595	42.354	185.16	15.504	1.1700e-05	0.011213
127.39	1.7844	27406.	3.6489e-05	-2.7837	-2.7186	72.916	17.985	59.286	514.47	0.17277	8.9551e-05	0.074072	0.0034869	2254.8	0.00044350	1.0639	1.8553	108.82	16.613	42.515	185.15	15.472	1.1719e-05	0.011244
127.50	1.7943	27378.	3.6526e-05	-2.7776	-2.7121	72.964	17.983	59.407	513.36	0.17669	8.9280e-05	0.073935	0.0034656	2268.3	0.00044086	1.0625	1.8535	108.77	16.632	42.678	185.14	15.439	1.1737e-05	0.011275
127.61	1.8042	27350.	3.6563e-05	-2.7715	-2.7055	73.012	17.980	59.530	512.25	0.18064	8.9009e-05	0.073799	0.0034444	2281.9	0.00043823	1.0611	1.8518	108.72	16.651	42.842	185.13	15.407	1.1755e-05	0.011307
127.72	1.8141	27322.	3.6600e-05	-2.7654	-2.6990	73.061	17.978	59.654	511.13	0.18462	8.8739e-05	0.073663	0.0034231	2295.6	0.00043562	1.0597	1.8500	108.68	16.670	43.008	185.12	15.375	1.1774e-05	0.011339
127.84	1.8241	27295.	3.6637e-05	-2.7593	-2.6925	73.109	17.976	59.779	510.01	0.18863	8.8469e-05	0.073527	0.0034019	2309.3	0.00043303	1.0583	1.8482	108.63	16.689	43.176	185.11	15.343	1.1792e-05	0.011371
127.95	1.8341	27267.	3.6675e-05	-2.7532	-2.6859	73.157	17.973	59.905	508.89	0.19267	8.8199e-05	0.073391	0.0033807	2323.1	0.00043046	1.0569	1.8464	108.58	16.708	43.346	185.10	15.310	1.1811e-05	0.011403
128.06	1.8441	27239.	3.6713e-05	-2.7470	-2.6793	73.206	17.971	60.032	507.77	0.19674	8.7931e-05	0.073254	0.0033595	2337.0	0.00042789	1.0555	1.8446	108.53	16.727	43.517	185.09	15.278	1.1829e-05	0.011435
128.17	1.8542	27210.	3.6751e-05	-2.7409	-2.6728	73.254	17.969	60.161	506.65	0.20084	8.7662e-05	0.073118	0.0033384	2351.0	0.00042535	1.0540	1.8427	108.48	16.746	43.690	185.08	15.246	1.1848e-05	0.011468
128.28	1.8643	27182.	3.6789e-05	-2.7348	-2.6662	73.303	17.967	60.291	505.52	0.20497	8.7394e-05	0.072982	0.0033173	2365.1	0.00042282	1.0526	1.8408	108.44	16.765	43.865	185.07	15.214	1.1867e-05	0.011500
128.39	1.8745	27154.	3.6827e-05	-2.7286	-2.6596	73.351	17.965	60.422	504.39	0.20914	8.7127e-05	0.072846	0.0032962	2379.2	0.00042031	1.0511	1.8390	108.39	16.785	44.041	185.05	15.182	1.1886e-05	0.011533
128.50	1.8847	27126.	3.6865e-05	-2.7224	-2.6530	73.400	17.963	60.555	503.26	0.21333	8.6860e-05	0.072711	0.0032752	2393.4	0.00041781	1.0496	1.8370	108.34	16.804	44.220	185.04	15.150	1.1905e-05	0.011566
128.62	1.8950	27097.	3.6904e-05	-2.7163	-2.6463	73.448	17.961	60.689	502.13	0.21756	8.6594e-05	0.072575	0.0032541	2407.7	0.00041533	1.0481	1.8351	108.29	16.824	44.400	185.03	15.117	1.1924e-05	0.011600
128.73	1.9052	27069.	3.6943e-05	-2.7101	-2.6397	73.497	17.959	60.824	501.00	0.22182	8.6328e-05	0.072439	0.0032331	2422.1	0.00041286	1.0466	1.8332	108.24	16.844	44.582	185.02	15.085	1.1943e-05	0.011633
128.84	1.9156	27040.	3.6982e-05	-2.7039	-2.6330	73.546	17.958	60.961	499.86	0.22611	8.6063e-05	0.072303	0.0032122	2436.6	0.00041041	1.0450	1.8312	108.20	16.863	44.766	185.00	15.053	1.1962e-05	0.011667
128.95	1.9259	27012.	3.7021e-05	-2.6977	-2.6264	73.594	17.956	61.099	498.72	0.23043	8.5798e-05	0.072167	0.0031913	2451.1	0.00040797	1.0435	1.8292	108.15	16.883	44.953	184.99	15.021	1.1981e-05	0.011701
129.06	1.9363	26983.	3.7061e-05	-2.6915	-2.6197	73.643	17.954	61.238	497.58	0.23479	8.5533e-05	0.072032	0.0031704	2465.8	0.00040555	1.0419	1.8272	108.10	16.903	45.141	184.98	14.989	1.2000e-05	0.011735
129.17	1.9468	26954.	3.7100e-05	-2.6853	-2.6130	73.692	17.953	61.379	496.43	0.23919	8.5269e-05	0.071896	0.0031495	2480.5	0.00040314	1.0403	1.8252	108.05	16.923	45.331	184.96	14.957	1.2020e-05	0.011770
129.29	1.9573	26925.	3.7140e-05	-2.6790	-2.6063	73.741	17.952	61.522	495.29	0.24362	8.5006e-05	0.071760	0.0031286	2495.3	0.00040075	1.0387	1.8231	108.00	16.944	45.523	184.95	14.925	1.2039e-05	0.011804
129.40	1.9678	26896.	3.7180e-05	-2.6728	-2.5996	73.789	17.950	61.666	494.14	0.24808	8.4743e-05	0.071625	0.0031078	2510.2	0.00039837	1.0371	1.8210	107.95	16.964	45.717	184.93	14.892	1.2059e-05	0.011839
129.51	1.9783	26867.	3.7220e-05	-2.6665	-2.5929	73.838	17.949	61.811	492.99	0.25258	8.4480e-05	0.071489	0.0030871	2525.2	0.00039601	1.0355	1.8189	107.90	16.984	45.914	184.92	14.860	1.2078e-05	0.011874
129.62	1.9890	26838.	3.7260e-05	-2.6603	-2.5862	73.887	17.948	61.958	491.84	0.25711	8.4218e-05	0.071353	0.0030663	2540.3	0.00039366	1.0339	1.8168	107.86	17.005	46.112	184.90	14.828	1.2098e-05	0.011909
129.73	1.9996	26809.	3.7301e-05	-2.6540	-2.5794	73.936	17.947	62.107	490.68	0.26168	8.3956e-05	0.071218	0.0030456	2555.4	0.00039132	1.0322	1.8147	107.81	17.026	46.313	184.89	14.796	1.2118e-05	0.011945
129.84	2.0103	26780.	3.7342e-05	-2.6478	-2.5727	73.985	17.946	62.257	489.52	0.26628	8.3695e-05	0.071083	0.0030249	2570.7	0.00038900	1.0305	1.8125	107.76	17.046	46.516	184.87	14.764	1.2138e-05	0.011981
129.95	2.0210	26750.	3.7383e-05	-2.6415	-2.5659	74.034	17.945	62.409	488.36	0.27093	8.3434e-05	0.070947	0.0030042	2586.0	0.00038670	1.0289	1.8104	107.71	17.067	46.721	184.85	14.732	1.2158e-05	0.012017
130.07	2.0318	26721.	3.7424e-05	-2.6352	-2.5591	74.083	17.944	62.562	487.20	0.27561	8.3174e-05	0.070812	0.0029836	2601.4	0.00038440	1.0271	1.8082	107.66	17.088	46.928	184.84	14.700	1.2178e-05	0.012053
130.18	2.0426	26691.	3.7465e-05	-2.6289	-2.5523	74.132	17.943	62.717	486.04	0.28032	8.2914e-05	0.070676	0.0029630	2617.0	0.00038212	1.0254	1.8059	107.61	17.109	47.138	184.82	14.668	1.2198e-05	0.012089
130.29	2.0534	26662.	3.7507e-05	-2.6226	-2.5455	74.181	17.943	62.874	484.87	0.28508	8.2654e-05	0.070541	0.0029425	2632.6	0.00037986	1.0237	1.8037	107.56	17.131	47.350	184.80	14.636	1.2218e-05	0.012126
130.40	2.0643	26632.	3.7549e-05	-2.6162	-2.5387	74.231	17.942	63.032	483.70	0.28987	8.2395e-05	0.070406	0.0029219	2648.3	0.00037760	1.0219	1.8014	107.51	17.152	47.565	184.78	14.603	1.2238e-05	0.012163
130.51	2.0752	26602.	3.7591e-05	-2.6099	-2.5319	74.280	17.942	63.192	482.53	0.29471	8.2137e-05	0.070271	0.0029014	2664.1	0.00037536	1.0202	1.7991	107.47	17.173	47.782	184.77	14.571	1.2259e-05	0.012200
130.62	2.0862	26572.	3.7633e-05	-2.6035	-2.5250	74.329	17.942	63.354	481.35	0.29958	8.1878e-05	0.070135	0.0028809	2680.0	0.00037314	1.0184	1.7968	107.42	17.195	48.001	184.75	14.539	1.2279e-05	0.012237
130.73	2.0972	26542.	3.7676e-05	-2.5972	-2.5182	74.379	17.941	63.518	480.18	0.30449	8.1620e-05	0.070000	0.0028605	2696.0	0.00037092	1.0166	1.7945	107.37	17.216	48.224	184.73	14.507	1.2300e-05	0.012275
130.85	2.1083	26512.	3.7718e-05	-2.5908	-2.5113	74.428	17.941	63.684	479.00	0.30944	8.1363e-05	0.069865	0.0028401	2712.1	0.00036872	1.0148	1.7921	107.32	17.238	48.448	184.71	14.475	1.2320e-05	0.012313
130.96	2.1194	26482.	3.7761e-05	-2.5844	-2.5044	74.477	17.941	63.851	477.82	0.31444	8.1106e-05	0.069730	0.0028197	2728.2	0.00036654	1.0129	1.7898	107.27	17.260	48.676	184.69	14.443	1.2341e-05	0.012351
131.07	2.1305	26452.	3.7804e-05	-2.5781	-2.4975	74.527	17.941	64.020	476.63	0.31947	8.0849e-05	0.069595	0.0027994	2744.5	0.00036436	1.0111	1.7874	107.22	17.282	48.906	184.67	14.411	1.2362e-05	0.012389
131.18	2.1417	26422.	3.7848e-05	-2.5717	-2.4906	74.576	17.941	64.192	475.44	0.32455	8.0593e-05	0.069460	0.0027791	2760.9	0.00036220	1.0092	1.7849	107.17	17.304	49.138	184.65	14.378	1.2383e-05	0.012428
131.29	2.1529	26391.	3.7891e-05	-2.5652	-2.4837	74.626	17.941	64.365	474.26	0.32967	8.0337e-05	0.069325	0.0027588	2777.4	0.00036005	1.0073	1.7825	107.12	17.326	49.374	184.63	14.346	1.2404e-05	0.012467
131.40	2.1642	26361.	3.7935e-05	-2.5588	-2.4767	74.675	17.942	64.540	473.06	0.33483	8.0082e-05	0.069190	0.0027385	2794.0	0.00035791	1.0054	1.7800	107.07	17.349	49.612	184.61	14.314	1.2425e-05	0.012506
131.51	2.1755	26330.	3.7979e-05	-2.5524	-2.4698	74.725	17.942	64.717	471.87	0.34004	7.9827e-05	0.069055	0.0027183	2810.6	0.00035579	1.0035	1.7775	107.02	17.371	49.853	184.59	14.282	1.2446e-05	0.012545
131.63	2.1868	26299.	3.8024e-05	-2.5459	-2.4628	74.775	17.943	64.897	470.67	0.34529	7.9572e-05	0.068921	0.0026982	2827.4	0.00035368	1.0016	1.7750	106.97	17.394	50.097	184.57	14.250	1.2467e-05	0.012585
131.74	2.1982	26269.	3.8068e-05	-2.5395	-2.4558	74.825	17.943	65.078	469.47	0.35059	7.9318e-05	0.068786	0.0026780	2844.3	0.00035158	0.99961	1.7725	106.92	17.417	50.344	184.54	14.217	1.2489e-05	0.012625
131.85	2.2097	26238.	3.8113e-05	-2.5330	-2.4488	74.874	17.944	65.262	468.27	0.35593	7.9064e-05	0.068651	0.0026579	2861.3	0.00034949	0.99764	1.7699	106.87	17.440	50.595	184.52	14.185	1.2510e-05	0.012665
131.96	2.2211	26207.	3.8158e-05	-2.5265	-2.4418	74.924	17.945	65.447	467.06	0.36131	7.8811e-05	0.068516	0.0026378	2878.4	0.00034741	0.99565	1.7673	106.82	17.463	50.848	184.50	14.153	1.2532e-05	0.012706
132.07	2.2327	26176.	3.8204e-05	-2.5201	-2.4348	74.974	17.946	65.635	465.85	0.36674	7.8557e-05	0.068381	0.0026178	2895.6	0.00034535	0.99363	1.7647	106.77	17.486	51.104	184.48	14.121	1.2554e-05	0.012747
132.18	2.2442	26144.	3.8249e-05	-2.5136	-2.4277	75.024	17.947	65.825	464.64	0.37222	7.8305e-05	0.068247	0.0025977	2912.9	0.00034330	0.99161	1.7620	106.72	17.509	51.364	184.45	14.088	1.2575e-05	0.012788
132.29	2.2558	26113.	3.8295e-05	-2.5070	-2.4207	75.074	17.948	66.018	463.43	0.37775	7.8052e-05	0.068112	0.0025778	2930.3	0.00034126	0.98956	1.7594	106.67	17.532	51.627	184.43	14.056	1.2597e-05	0.012829
132.41	2.2675	26082.	3.8341e-05	-2.5005	-2.4136	75.124	17.949	66.213	462.21	0.38332	7.7800e-05	0.067978	0.0025578	2947.9	0.00033923	0.98749	1.7567	106.62	17.556	51.893	184.41	14.024	1.2619e-05	0.012871
132.52	2.2792	26050.	3.8387e-05	-2.4940	-2.4065	75.174	17.950	66.410	461.00	0.38895	7.7548e-05	0.067843	0.0025379	2965.5	0.00033721	0.98540	1.7540	106.57	17.580	52.162	184.38	13.991	1.2641e-05	0.012913
132.63	2.2909	26019.	3.8434e-05	-2.4874	-2.3994	75.225	17.952	66.609	459.77	0.39462	7.7297e-05	0.067708	0.0025180	2983.3	0.00033520	0.98330	1.7512	106.52	17.604	52.436	184.36	13.959	1.2664e-05	0.012955
132.74	2.3027	25987.	3.8481e-05	-2.4809	-2.3923	75.275	17.953	66.811	458.55	0.40034	7.7046e-05	0.067574	0.0024982	3001.1	0.00033321	0.98117	1.7484	106.47	17.628	52.712	184.33	13.926	1.2686e-05	0.012998
132.85	2.3145	25955.	3.8528e-05	-2.4743	-2.3851	75.325	17.955	67.016	457.32	0.40611	7.6795e-05	0.067439	0.0024784	3019.1	0.00033122	0.97903	1.7456	106.42	17.652	52.992	184.31	13.894	1.2709e-05	0.013041
132.96	2.3264	25923.	3.8576e-05	-2.4677	-2.3780	75.376	17.957	67.223	456.09	0.41194	7.6545e-05	0.067305	0.0024586	3037.2	0.00032925	0.97686	1.7428	106.37	17.676	53.276	184.28	13.862	1.2731e-05	0.013084
133.07	2.3383	25891.	3.8623e-05	-2.4611	-2.3708	75.426	17.959	67.433	454.86	0.41781	7.6295e-05	0.067171	0.0024388	3055.4	0.00032729	0.97468	1.7400	106.32	17.701	53.564	184.25	13.829	1.2754e-05	0.013128
133.19	2.3502	25859.	3.8671e-05	-2.4545	-2.3636	75.477	17.961	67.645	453.62	0.42374	7.6045e-05	0.067036	0.0024191	3073.7	0.00032534	0.97247	1.7371	106.27	17.725	53.855	184.23	13.797	1.2777e-05	0.013172
133.30	2.3622	25827.	3.8720e-05	-2.4479	-2.3564	75.527	17.963	67.860	452.38	0.42972	7.5795e-05	0.066902	0.0023994	3092.2	0.00032340	0.97025	1.7342	106.21	17.750	54.151	184.20	13.764	1.2799e-05	0.013216
133.41	2.3742	25794.	3.8768e-05	-2.4412	-2.3492	75.578	17.965	68.078	451.14	0.43576	7.5546e-05	0.066768	0.0023798	3110.7	0.00032147	0.96800	1.7312	106.16	17.775	54.450	184.17	13.731	1.2822e-05	0.013261
133.52	2.3863	25762.	3.8817e-05	-2.4346	-2.3419	75.629	17.967	68.298	449.90	0.44185	7.5298e-05	0.066633	0.0023602	3129.4	0.00031955	0.96574	1.7283	106.11	17.800	54.754	184.14	13.699	1.2846e-05	0.013305
133.63	2.3985	25729.	3.8866e-05	-2.4279	-2.3347	75.679	17.970	68.522	448.65	0.44800	7.5049e-05	0.066499	0.0023406	3148.2	0.00031764	0.96345	1.7253	106.06	17.826	55.061	184.12	13.666	1.2869e-05	0.013351
133.74	2.4106	25697.	3.8916e-05	-2.4212	-2.3274	75.730	17.972	68.748	447.40	0.45420	7.4801e-05	0.066365	0.0023211	3167.1	0.00031574	0.96114	1.7223	106.01	17.851	55.373	184.09	13.633	1.2892e-05	0.013396
133.86	2.4228	25664.	3.8965e-05	-2.4145	-2.3201	75.781	17.975	68.977	446.15	0.46046	7.4553e-05	0.066231	0.0023016	3186.2	0.00031386	0.95881	1.7192	105.96	17.877	55.689	184.06	13.601	1.2916e-05	0.013442
133.97	2.4351	25631.	3.9016e-05	-2.4078	-2.3128	75.832	17.978	69.210	444.89	0.46678	7.4306e-05	0.066096	0.0022821	3205.3	0.00031198	0.95646	1.7162	105.91	17.903	56.010	184.03	13.568	1.2939e-05	0.013488
134.08	2.4474	25598.	3.9066e-05	-2.4011	-2.3055	75.883	17.981	69.445	443.63	0.47315	7.4058e-05	0.065962	0.0022627	3224.6	0.00031011	0.95409	1.7131	105.85	17.929	56.335	184.00	13.535	1.2963e-05	0.013535
134.19	2.4597	25565.	3.9117e-05	-2.3943	-2.2981	75.935	17.984	69.684	442.37	0.47959	7.3811e-05	0.065828	0.0022433	3244.1	0.00030825	0.95169	1.7099	105.80	17.955	56.664	183.97	13.502	1.2987e-05	0.013582
134.30	2.4721	25531.	3.9168e-05	-2.3876	-2.2908	75.986	17.987	69.925	441.10	0.48608	7.3564e-05	0.065694	0.0022240	3263.6	0.00030641	0.94927	1.7068	105.75	17.982	56.999	183.94	13.469	1.3011e-05	0.013629
134.41	2.4846	25498.	3.9219e-05	-2.3808	-2.2834	76.037	17.991	70.170	439.83	0.49264	7.3318e-05	0.065560	0.0022047	3283.3	0.00030457	0.94684	1.7036	105.70	18.008	57.338	183.91	13.437	1.3035e-05	0.013677
134.52	2.4971	25464.	3.9271e-05	-2.3740	-2.2760	76.088	17.994	70.419	438.56	0.49926	7.3072e-05	0.065426	0.0021854	3303.1	0.00030274	0.94437	1.7003	105.65	18.035	57.682	183.88	13.404	1.3060e-05	0.013725
134.64	2.5096	25431.	3.9323e-05	-2.3672	-2.2686	76.140	17.998	70.671	437.29	0.50594	7.2826e-05	0.065292	0.0021661	3323.1	0.00030092	0.94189	1.6971	105.59	18.062	58.031	183.84	13.371	1.3084e-05	0.013774
134.75	2.5222	25397.	3.9375e-05	-2.3604	-2.2611	76.192	18.002	70.926	436.01	0.51268	7.2580e-05	0.065158	0.0021469	3343.2	0.00029912	0.93938	1.6938	105.54	18.090	58.385	183.81	13.337	1.3109e-05	0.013823
134.86	2.5348	25363.	3.9428e-05	-2.3536	-2.2537	76.243	18.005	71.185	434.73	0.51949	7.2335e-05	0.065024	0.0021278	3363.4	0.00029732	0.93685	1.6905	105.49	18.117	58.745	183.78	13.304	1.3133e-05	0.013872
134.97	2.5474	25329.	3.9481e-05	-2.3468	-2.2462	76.295	18.009	71.447	433.45	0.52637	7.2090e-05	0.064890	0.0021086	3383.8	0.00029553	0.93429	1.6871	105.44	18.145	59.110	183.74	13.271	1.3158e-05	0.013922
135.08	2.5602	25295.	3.9534e-05	-2.3399	-2.2387	76.347	18.014	71.713	432.16	0.53331	7.1845e-05	0.064757	0.0020895	3404.3	0.00029375	0.93171	1.6838	105.38	18.173	59.480	183.71	13.238	1.3183e-05	0.013972
135.19	2.5729	25260.	3.9588e-05	-2.3330	-2.2312	76.399	18.018	71.983	430.87	0.54032	7.1600e-05	0.064623	0.0020705	3424.9	0.00029198	0.92911	1.6803	105.33	18.201	59.856	183.68	13.205	1.3208e-05	0.014022
135.30	2.5857	25226.	3.9642e-05	-2.3261	-2.2236	76.451	18.022	72.257	429.57	0.54740	7.1356e-05	0.064489	0.0020515	3445.7	0.00029022	0.92648	1.6769	105.28	18.229	60.237	183.64	13.171	1.3234e-05	0.014073
135.42	2.5986	25191.	3.9697e-05	-2.3192	-2.2161	76.503	18.027	72.535	428.28	0.55454	7.1111e-05	0.064355	0.0020325	3466.6	0.00028847	0.92383	1.6734	105.23	18.258	60.625	183.60	13.138	1.3259e-05	0.014125
135.53	2.6115	25156.	3.9751e-05	-2.3123	-2.2085	76.555	18.032	72.817	426.98	0.56176	7.0868e-05	0.064222	0.0020135	3487.7	0.00028672	0.92115	1.6699	105.17	18.287	61.019	183.57	13.104	1.3285e-05	0.014176
135.64	2.6244	25121.	3.9807e-05	-2.3054	-2.2009	76.607	18.037	73.102	425.67	0.56905	7.0624e-05	0.064088	0.0019946	3508.9	0.00028499	0.91845	1.6664	105.12	18.316	61.418	183.53	13.071	1.3310e-05	0.014229
135.75	2.6374	25086.	3.9862e-05	-2.2984	-2.1933	76.659	18.042	73.393	424.37	0.57641	7.0380e-05	0.063954	0.0019758	3530.3	0.00028326	0.91572	1.6628	105.07	18.346	61.824	183.49	13.037	1.3336e-05	0.014281
135.86	2.6504	25051.	3.9918e-05	-2.2914	-2.1856	76.712	18.047	73.687	423.05	0.58385	7.0137e-05	0.063821	0.0019570	3551.8	0.00028155	0.91297	1.6592	105.01	18.376	62.237	183.46	13.003	1.3362e-05	0.014334
135.97	2.6635	25016.	3.9975e-05	-2.2844	-2.1780	76.764	18.052	73.986	421.74	0.59136	6.9894e-05	0.063687	0.0019382	3573.5	0.00027984	0.91019	1.6555	104.96	18.406	62.655	183.42	12.970	1.3388e-05	0.014388
136.08	2.6766	24980.	4.0031e-05	-2.2774	-2.1703	76.817	18.058	74.289	420.42	0.59894	6.9651e-05	0.063553	0.0019194	3595.3	0.00027814	0.90739	1.6519	104.90	18.436	63.081	183.38	12.936	1.3415e-05	0.014442
136.20	2.6898	24945.	4.0088e-05	-2.2704	-2.1626	76.870	18.063	74.597	419.10	0.60661	6.9408e-05	0.063420	0.0019007	3617.3	0.00027645	0.90455	1.6481	104.85	18.467	63.514	183.34	12.902	1.3441e-05	0.014496
136.31	2.7030	24909.	4.0146e-05	-2.2634	-2.1549	76.923	18.069	74.909	417.78	0.61435	6.9165e-05	0.063286	0.0018820	3639.4	0.00027477	0.90169	1.6444	104.80	18.498	63.954	183.30	12.868	1.3468e-05	0.014551
136.42	2.7163	24873.	4.0204e-05	-2.2563	-2.1471	76.975	18.075	75.227	416.45	0.62217	6.8923e-05	0.063153	0.0018634	3661.7	0.00027310	0.89881	1.6406	104.74	18.529	64.400	183.26	12.834	1.3495e-05	0.014607
136.53	2.7296	24837.	4.0262e-05	-2.2492	-2.1393	77.029	18.081	75.549	415.12	0.63007	6.8681e-05	0.063019	0.0018448	3684.2	0.00027143	0.89589	1.6368	104.69	18.560	64.855	183.22	12.800	1.3522e-05	0.014663
136.64	2.7429	24801.	4.0321e-05	-2.2421	-2.1315	77.082	18.087	75.877	413.78	0.63805	6.8439e-05	0.062886	0.0018263	3706.8	0.00026977	0.89295	1.6329	104.63	18.592	65.317	183.17	12.766	1.3549e-05	0.014719
136.75	2.7564	24764.	4.0380e-05	-2.2350	-2.1237	77.135	18.094	76.209	412.45	0.64612	6.8197e-05	0.062752	0.0018078	3729.6	0.00026812	0.88998	1.6290	104.58	18.624	65.787	183.13	12.731	1.3577e-05	0.014776
136.86	2.7698	24728.	4.0440e-05	-2.2279	-2.1159	77.188	18.100	76.547	411.10	0.65428	6.7955e-05	0.062619	0.0017893	3752.6	0.00026648	0.88698	1.6251	104.52	18.657	66.264	183.09	12.697	1.3604e-05	0.014834
136.98	2.7833	24691.	4.0500e-05	-2.2207	-2.1080	77.242	18.107	76.890	409.76	0.66251	6.7714e-05	0.062486	0.0017709	3775.7	0.00026485	0.88396	1.6211	104.47	18.690	66.750	183.04	12.662	1.3632e-05	0.014892
137.09	2.7969	24654.	4.0561e-05	-2.2135	-2.1001	77.295	18.114	77.239	408.41	0.67084	6.7472e-05	0.062352	0.0017525	3799.0	0.00026323	0.88090	1.6171	104.41	18.723	67.245	183.00	12.628	1.3660e-05	0.014950
137.20	2.8105	24617.	4.0622e-05	-2.2063	-2.0922	77.349	18.121	77.593	407.05	0.67926	6.7231e-05	0.062219	0.0017342	3822.5	0.00026161	0.87781	1.6131	104.36	18.756	67.747	182.95	12.593	1.3688e-05	0.015009
137.31	2.8241	24580.	4.0683e-05	-2.1991	-2.0842	77.403	18.129	77.953	405.70	0.68776	6.6990e-05	0.062086	0.0017159	3846.1	0.00026000	0.87470	1.6090	104.30	18.790	68.259	182.90	12.558	1.3716e-05	0.015069
137.42	2.8378	24543.	4.0745e-05	-2.1919	-2.0763	77.457	18.136	78.319	404.34	0.69636	6.6749e-05	0.061953	0.0016976	3870.0	0.00025840	0.87155	1.6048	104.24	18.824	68.780	182.86	12.524	1.3745e-05	0.015129
137.53	2.8515	24505.	4.0808e-05	-2.1846	-2.0683	77.511	18.144	78.692	402.97	0.70505	6.6508e-05	0.061819	0.0016794	3894.0	0.00025681	0.86837	1.6007	104.19	18.859	69.310	182.81	12.489	1.3774e-05	0.015190
137.65	2.8653	24467.	4.0871e-05	-2.1774	-2.0603	77.565	18.152	79.070	401.60	0.71384	6.6267e-05	0.061686	0.0016613	3918.2	0.00025522	0.86517	1.5965	104.13	18.894	69.850	182.76	12.454	1.3802e-05	0.015252
137.76	2.8792	24429.	4.0934e-05	-2.1701	-2.0522	77.619	18.160	79.455	400.23	0.72272	6.6026e-05	0.061553	0.0016431	3942.6	0.00025364	0.86193	1.5922	104.07	18.929	70.399	182.71	12.418	1.3832e-05	0.015314
137.87	2.8931	24391.	4.0998e-05	-2.1627	-2.0441	77.674	18.168	79.847	398.85	0.73170	6.5786e-05	0.061420	0.0016251	3967.1	0.00025207	0.85865	1.5879	104.02	18.965	70.959	182.66	12.383	1.3861e-05	0.015376
137.98	2.9070	24353.	4.1063e-05	-2.1554	-2.0360	77.729	18.176	80.245	397.47	0.74078	6.5545e-05	0.061287	0.0016070	3991.9	0.00025051	0.85535	1.5836	103.96	19.001	71.529	182.61	12.348	1.3890e-05	0.015439
138.09	2.9210	24314.	4.1128e-05	-2.1480	-2.0279	77.783	18.185	80.650	396.08	0.74997	6.5305e-05	0.061154	0.0015890	4016.9	0.00024895	0.85201	1.5792	103.90	19.038	72.109	182.55	12.312	1.3920e-05	0.015503
138.20	2.9350	24276.	4.1193e-05	-2.1406	-2.0197	77.838	18.194	81.062	394.69	0.75926	6.5065e-05	0.061021	0.0015711	4042.0	0.00024740	0.84864	1.5748	103.85	19.075	72.701	182.50	12.277	1.3950e-05	0.015568
138.31	2.9491	24237.	4.1259e-05	-2.1332	-2.0116	77.893	18.203	81.482	393.30	0.76865	6.4824e-05	0.060888	0.0015532	4067.4	0.00024586	0.84524	1.5703	103.79	19.112	73.304	182.45	12.241	1.3980e-05	0.015633
138.43	2.9632	24198.	4.1326e-05	-2.1258	-2.0033	77.948	18.212	81.909	391.90	0.77815	6.4584e-05	0.060755	0.0015353	4092.9	0.00024432	0.84180	1.5658	103.73	19.150	73.918	182.39	12.205	1.4011e-05	0.015698
138.54	2.9774	24159.	4.1393e-05	-2.1183	-1.9951	78.004	18.222	82.344	390.50	0.78776	6.4344e-05	0.060622	0.0015175	4118.7	0.00024280	0.83833	1.5612	103.67	19.188	74.544	182.33	12.169	1.4041e-05	0.015765
138.65	2.9916	24119.	4.1461e-05	-2.1109	-1.9868	78.059	18.231	82.786	389.09	0.79748	6.4104e-05	0.060489	0.0014997	4144.7	0.00024127	0.83482	1.5566	103.62	19.227	75.182	182.28	12.133	1.4072e-05	0.015832
138.76	3.0059	24079.	4.1529e-05	-2.1034	-1.9785	78.115	18.241	83.237	387.68	0.80731	6.3864e-05	0.060357	0.0014820	4170.8	0.00023976	0.83128	1.5520	103.56	19.266	75.833	182.22	12.097	1.4103e-05	0.015900
138.87	3.0203	24040.	4.1598e-05	-2.0958	-1.9702	78.170	18.252	83.696	386.26	0.81726	6.3624e-05	0.060224	0.0014643	4197.2	0.00023825	0.82770	1.5473	103.50	19.306	76.496	182.16	12.061	1.4135e-05	0.015968
138.98	3.0346	24000.	4.1667e-05	-2.0883	-1.9618	78.226	18.262	84.164	384.84	0.82733	6.3384e-05	0.060091	0.0014467	4223.8	0.00023675	0.82409	1.5425	103.44	19.346	77.173	182.10	12.025	1.4166e-05	0.016038
139.09	3.0491	23959.	4.1738e-05	-2.0807	-1.9534	78.282	18.273	84.640	383.41	0.83751	6.3144e-05	0.059959	0.0014291	4250.7	0.00023526	0.82044	1.5378	103.38	19.386	77.864	182.04	11.988	1.4198e-05	0.016108
139.21	3.0636	23919.	4.1808e-05	-2.0731	-1.9450	78.338	18.284	85.126	381.98	0.84782	6.2904e-05	0.059826	0.0014116	4277.7	0.00023377	0.81675	1.5329	103.32	19.428	78.568	181.98	11.951	1.4230e-05	0.016178
139.32	3.0781	23878.	4.1880e-05	-2.0655	-1.9366	78.395	18.295	85.621	380.54	0.85825	6.2664e-05	0.059693	0.0013941	4305.0	0.00023229	0.81302	1.5280	103.26	19.469	79.287	181.91	11.915	1.4262e-05	0.016250
139.43	3.0927	23837.	4.1952e-05	-2.0578	-1.9281	78.451	18.306	86.125	379.10	0.86881	6.2424e-05	0.059561	0.0013766	4332.5	0.00023081	0.80925	1.5231	103.20	19.511	80.022	181.85	11.878	1.4295e-05	0.016322
139.54	3.1073	23796.	4.2024e-05	-2.0501	-1.9195	78.508	18.318	86.639	377.65	0.87950	6.2183e-05	0.059428	0.0013592	4360.3	0.00022934	0.80545	1.5181	103.14	19.554	80.771	181.78	11.841	1.4328e-05	0.016395
139.65	3.1220	23754.	4.2097e-05	-2.0424	-1.9110	78.565	18.330	87.164	376.20	0.89032	6.1943e-05	0.059296	0.0013419	4388.2	0.00022788	0.80160	1.5131	103.08	19.597	81.536	181.72	11.803	1.4361e-05	0.016469
139.76	3.1367	23713.	4.2171e-05	-2.0347	-1.9024	78.622	18.342	87.699	374.74	0.90127	6.1703e-05	0.059164	0.0013246	4416.5	0.00022643	0.79772	1.5080	103.02	19.641	82.318	181.65	11.766	1.4394e-05	0.016544
139.87	3.1515	23671.	4.2246e-05	-2.0269	-1.8938	78.679	18.355	88.245	373.28	0.91236	6.1463e-05	0.059031	0.0013073	4444.9	0.00022498	0.79379	1.5028	102.96	19.685	83.116	181.58	11.728	1.4428e-05	0.016620
139.99	3.1664	23629.	4.2321e-05	-2.0191	-1.8851	78.737	18.368	88.802	371.81	0.92359	6.1223e-05	0.058899	0.0012901	4473.7	0.00022353	0.78983	1.4976	102.90	19.730	83.932	181.51	11.691	1.4462e-05	0.016696
140.10	3.1813	23586.	4.2397e-05	-2.0113	-1.8764	78.794	18.381	89.370	370.34	0.93496	6.0982e-05	0.058767	0.0012730	4502.6	0.00022209	0.78582	1.4923	102.84	19.776	84.766	181.44	11.653	1.4496e-05	0.016774
140.21	3.1962	23544.	4.2474e-05	-2.0034	-1.8677	78.852	18.395	89.950	368.86	0.94648	6.0742e-05	0.058635	0.0012559	4531.9	0.00022066	0.78176	1.4870	102.78	19.822	85.619	181.37	11.615	1.4531e-05	0.016852
140.32	3.2112	23501.	4.2552e-05	-1.9955	-1.8589	78.910	18.409	90.543	367.37	0.95814	6.0502e-05	0.058503	0.0012388	4561.4	0.00021923	0.77767	1.4817	102.72	19.869	86.490	181.29	11.577	1.4566e-05	0.016931
140.43	3.2262	23458.	4.2630e-05	-1.9876	-1.8501	78.968	18.423	91.148	365.88	0.96996	6.0261e-05	0.058371	0.0012219	4591.1	0.00021781	0.77352	1.4762	102.65	19.916	87.381	181.22	11.539	1.4601e-05	0.017011
140.54	3.2413	23414.	4.2709e-05	-1.9797	-1.8412	79.027	18.437	91.766	364.38	0.98193	6.0020e-05	0.058239	0.0012049	4621.1	0.00021640	0.76934	1.4708	102.59	19.964	88.293	181.14	11.500	1.4636e-05	0.017093
140.65	3.2565	23370.	4.2789e-05	-1.9717	-1.8324	79.085	18.452	92.397	362.87	0.99406	5.9779e-05	0.058107	0.0011880	4651.4	0.00021499	0.76511	1.4652	102.53	20.013	89.226	181.06	11.462	1.4672e-05	0.017175
140.77	3.2717	23327.	4.2870e-05	-1.9637	-1.8234	79.144	18.468	93.043	361.36	1.0063	5.9538e-05	0.057975	0.0011712	4682.0	0.00021358	0.76083	1.4596	102.47	20.062	90.181	180.98	11.423	1.4708e-05	0.017258
140.88	3.2869	23282.	4.2951e-05	-1.9556	-1.8145	79.203	18.483	93.702	359.84	1.0188	5.9297e-05	0.057844	0.0011544	4712.9	0.00021218	0.75650	1.4539	102.40	20.112	91.158	180.90	11.384	1.4745e-05	0.017342
140.99	3.3022	23238.	4.3033e-05	-1.9476	-1.8055	79.262	18.500	94.377	358.32	1.0314	5.9056e-05	0.057712	0.0011376	4744.1	0.00021079	0.75213	1.4482	102.34	20.162	92.159	180.82	11.345	1.4782e-05	0.017427
141.10	3.3176	23193.	4.3117e-05	-1.9395	-1.7964	79.322	18.516	95.067	356.78	1.0442	5.8815e-05	0.057581	0.0011210	4775.5	0.00020940	0.74771	1.4424	102.28	20.214	93.184	180.74	11.306	1.4819e-05	0.017514
141.21	3.3330	23148.	4.3201e-05	-1.9313	-1.7873	79.381	18.533	95.773	355.24	1.0572	5.8573e-05	0.057449	0.0011043	4807.3	0.00020802	0.74323	1.4366	102.21	20.266	94.234	180.65	11.266	1.4856e-05	0.017601
141.32	3.3485	23102.	4.3286e-05	-1.9231	-1.7782	79.441	18.551	96.495	353.70	1.0703	5.8331e-05	0.057318	0.0010877	4839.3	0.00020664	0.73871	1.4306	102.15	20.319	95.311	180.56	11.227	1.4894e-05	0.017690
141.44	3.3640	23057.	4.3371e-05	-1.9149	-1.7690	79.501	18.569	97.234	352.14	1.0837	5.8089e-05	0.057187	0.0010712	4871.7	0.00020527	0.73413	1.4247	102.08	20.372	96.414	180.48	11.187	1.4932e-05	0.017779
141.55	3.3796	23011.	4.3458e-05	-1.9067	-1.7598	79.562	18.587	97.991	350.58	1.0972	5.7847e-05	0.057056	0.0010548	4904.4	0.00020390	0.72951	1.4186	102.02	20.426	97.545	180.39	11.147	1.4971e-05	0.017870
141.66	3.3952	22964.	4.3546e-05	-1.8984	-1.7505	79.623	18.606	98.766	349.01	1.1109	5.7604e-05	0.056925	0.0010383	4937.4	0.00020253	0.72482	1.4125	101.95	20.481	98.705	180.30	11.107	1.5010e-05	0.017963
141.77	3.4109	22918.	4.3635e-05	-1.8900	-1.7412	79.683	18.625	99.561	347.43	1.1248	5.7361e-05	0.056794	0.0010220	4970.8	0.00020118	0.72009	1.4063	101.88	20.537	99.895	180.20	11.066	1.5049e-05	0.018056
141.88	3.4266	22871.	4.3724e-05	-1.8817	-1.7318	79.745	18.645	100.37	345.85	1.1389	5.7118e-05	0.056663	0.0010057	5004.5	0.00019982	0.71530	1.4000	101.82	20.594	101.12	180.11	11.026	1.5089e-05	0.018151
141.99	3.4424	22823.	4.3815e-05	-1.8733	-1.7224	79.806	18.666	101.21	344.25	1.1532	5.6875e-05	0.056533	0.00098945	5038.5	0.00019847	0.71045	1.3937	101.75	20.652	102.37	180.01	10.985	1.5129e-05	0.018247
142.10	3.4583	22775.	4.3907e-05	-1.8648	-1.7130	79.868	18.687	102.06	342.65	1.1677	5.6631e-05	0.056403	0.00097327	5072.9	0.00019713	0.70554	1.3873	101.68	20.710	103.66	179.91	10.944	1.5170e-05	0.018344
142.22	3.4742	22727.	4.4000e-05	-1.8563	-1.7035	79.930	18.709	102.94	341.03	1.1825	5.6387e-05	0.056272	0.00095714	5107.6	0.00019579	0.70058	1.3808	101.62	20.769	104.98	179.81	10.903	1.5211e-05	0.018443
142.33	3.4901	22679.	4.4094e-05	-1.8478	-1.6939	79.992	18.731	103.84	339.41	1.1974	5.6143e-05	0.056142	0.00094108	5142.7	0.00019445	0.69555	1.3742	101.55	20.829	106.34	179.71	10.861	1.5253e-05	0.018543
142.44	3.5061	22630.	4.4189e-05	-1.8392	-1.6843	80.055	18.754	104.77	337.78	1.2126	5.5898e-05	0.056012	0.00092507	5178.2	0.00019312	0.69047	1.3676	101.48	20.891	107.74	179.61	10.820	1.5295e-05	0.018645
142.55	3.5222	22581.	4.4285e-05	-1.8306	-1.6746	80.117	18.778	105.72	336.14	1.2280	5.5653e-05	0.055883	0.00090913	5214.1	0.00019179	0.68532	1.3608	101.41	20.953	109.18	179.50	10.778	1.5337e-05	0.018748
142.66	3.5383	22532.	4.4382e-05	-1.8219	-1.6649	80.181	18.803	106.69	334.49	1.2437	5.5408e-05	0.055753	0.00089324	5250.3	0.00019047	0.68011	1.3540	101.34	21.016	110.66	179.39	10.736	1.5380e-05	0.018853
142.77	3.5545	22482.	4.4481e-05	-1.8132	-1.6551	80.244	18.828	107.69	332.83	1.2596	5.5162e-05	0.055624	0.00087742	5286.9	0.00018915	0.67483	1.3471	101.27	21.080	112.18	179.28	10.693	1.5423e-05	0.018960
142.88	3.5707	22431.	4.4581e-05	-1.8045	-1.6453	80.308	18.854	108.72	331.16	1.2757	5.4916e-05	0.055495	0.00086165	5324.0	0.00018783	0.66948	1.3402	101.20	21.145	113.75	179.17	10.651	1.5467e-05	0.019068
143.00	3.5870	22380.	4.4682e-05	-1.7957	-1.6354	80.372	18.881	109.78	329.48	1.2921	5.4669e-05	0.055366	0.00084595	5361.5	0.00018652	0.66407	1.3331	101.13	21.211	115.36	179.06	10.608	1.5512e-05	0.019178
143.11	3.6033	22329.	4.4784e-05	-1.7868	-1.6254	80.436	18.908	110.87	327.78	1.3088	5.4422e-05	0.055237	0.00083032	5399.4	0.00018521	0.65859	1.3260	101.06	21.278	117.02	178.94	10.565	1.5557e-05	0.019289
143.22	3.6197	22278.	4.4888e-05	-1.7779	-1.6154	80.501	18.937	111.99	326.08	1.3258	5.4174e-05	0.055109	0.00081474	5437.7	0.00018390	0.65303	1.3187	100.99	21.346	118.74	178.82	10.521	1.5602e-05	0.019402
143.33	3.6362	22226.	4.4993e-05	-1.7689	-1.6053	80.566	18.966	113.15	324.37	1.3430	5.3926e-05	0.054980	0.00079924	5476.5	0.00018260	0.64741	1.3114	100.92	21.416	120.51	178.70	10.478	1.5648e-05	0.019518
143.44	3.6527	22173.	4.5100e-05	-1.7599	-1.5952	80.632	18.996	114.34	322.64	1.3605	5.3677e-05	0.054853	0.00078379	5515.7	0.00018130	0.64171	1.3039	100.84	21.486	122.33	178.58	10.434	1.5695e-05	0.019635
143.55	3.6693	22120.	4.5207e-05	-1.7509	-1.5850	80.698	19.028	115.57	320.90	1.3783	5.3427e-05	0.054725	0.00076841	5555.4	0.00018001	0.63593	1.2964	100.77	21.558	124.22	178.46	10.390	1.5742e-05	0.019754
143.66	3.6859	22067.	4.5317e-05	-1.7418	-1.5747	80.764	19.060	116.83	319.15	1.3964	5.3178e-05	0.054598	0.00075310	5595.6	0.00017871	0.63008	1.2888	100.70	21.631	126.16	178.33	10.346	1.5790e-05	0.019875
143.78	3.7026	22013.	4.5428e-05	-1.7326	-1.5644	80.831	19.093	118.14	317.38	1.4148	5.2927e-05	0.054471	0.00073786	5636.2	0.00017742	0.62414	1.2811	100.62	21.706	128.17	178.20	10.301	1.5838e-05	0.019998
143.89	3.7193	21958.	4.5540e-05	-1.7234	-1.5540	80.898	19.128	119.49	315.60	1.4335	5.2676e-05	0.054344	0.00072268	5677.4	0.00017614	0.61813	1.2732	100.55	21.781	130.25	178.06	10.256	1.5887e-05	0.020124
144.00	3.7361	21904.	4.5655e-05	-1.7141	-1.5435	80.965	19.164	120.88	313.81	1.4526	5.2424e-05	0.054218	0.00070758	5719.1	0.00017485	0.61202	1.2653	100.47	21.858	132.40	177.93	10.211	1.5937e-05	0.020252
144.11	3.7530	21848.	4.5771e-05	-1.7047	-1.5329	81.033	19.201	122.32	312.01	1.4720	5.2171e-05	0.054092	0.00069254	5761.3	0.00017357	0.60584	1.2573	100.39	21.937	134.63	177.79	10.165	1.5987e-05	0.020382
144.22	3.7699	21792.	4.5888e-05	-1.6953	-1.5223	81.102	19.239	123.80	310.19	1.4918	5.1918e-05	0.053966	0.00067758	5804.0	0.00017229	0.59956	1.2491	100.32	22.017	136.93	177.65	10.119	1.6038e-05	0.020514
144.33	3.7869	21736.	4.6008e-05	-1.6858	-1.5116	81.171	19.278	125.34	308.36	1.5119	5.1664e-05	0.053841	0.00066268	5847.4	0.00017102	0.59320	1.2408	100.24	22.098	139.32	177.50	10.073	1.6090e-05	0.020649
144.44	3.8039	21678.	4.6129e-05	-1.6763	-1.5008	81.240	19.319	126.94	306.51	1.5324	5.1409e-05	0.053716	0.00064786	5891.3	0.00016974	0.58674	1.2324	100.16	22.181	141.80	177.35	10.026	1.6143e-05	0.020787
144.56	3.8210	21621.	4.6252e-05	-1.6667	-1.4899	81.310	19.361	128.59	304.64	1.5533	5.1153e-05	0.053592	0.00063311	5935.7	0.00016847	0.58018	1.2239	100.08	22.265	144.37	177.20	9.9795	1.6196e-05	0.020928
144.67	3.8382	21562.	4.6377e-05	-1.6570	-1.4790	81.380	19.405	130.30	302.76	1.5745	5.0896e-05	0.053468	0.00061844	5980.8	0.00016720	0.57353	1.2153	100.00	22.352	147.04	177.05	9.9322	1.6250e-05	0.021071
144.78	3.8554	21504.	4.6504e-05	-1.6472	-1.4679	81.451	19.451	132.08	300.87	1.5962	5.0639e-05	0.053345	0.00060384	6026.5	0.00016593	0.56678	1.2065	99.923	22.440	149.81	176.89	9.8846	1.6305e-05	0.021217
144.89	3.8726	21444.	4.6633e-05	-1.6374	-1.4568	81.522	19.498	133.92	298.95	1.6183	5.0380e-05	0.053222	0.00058932	6072.9	0.00016467	0.55992	1.1976	99.842	22.530	152.69	176.73	9.8367	1.6360e-05	0.021366
145.00	3.8900	21384.	4.6764e-05	-1.6275	-1.4456	81.594	19.547	135.84	297.02	1.6409	5.0121e-05	0.053099	0.00057487	6119.9	0.00016340	0.55295	1.1886	99.760	22.621	155.69	176.56	9.7883	1.6417e-05	0.021519
145.11	3.9074	21323.	4.6898e-05	-1.6175	-1.4343	81.666	19.597	137.83	295.07	1.6639	4.9860e-05	0.052978	0.00056051	6167.7	0.00016214	0.54587	1.1794	99.677	22.715	158.81	176.39	9.7396	1.6475e-05	0.021674
145.23	3.9248	21261.	4.7034e-05	-1.6074	-1.4228	81.739	19.650	139.90	293.11	1.6874	4.9599e-05	0.052857	0.00054622	6216.1	0.00016087	0.53868	1.1701	99.594	22.810	162.07	176.22	9.6904	1.6533e-05	0.021833
145.34	3.9423	21199.	4.7172e-05	-1.5973	-1.4113	81.813	19.704	142.06	291.12	1.7113	4.9336e-05	0.052736	0.00053201	6265.2	0.00015961	0.53137	1.1606	99.509	22.908	165.46	176.04	9.6409	1.6592e-05	0.021996
145.45	3.9599	21136.	4.7313e-05	-1.5871	-1.3997	81.887	19.761	144.31	289.12	1.7358	4.9072e-05	0.052616	0.00051789	6315.1	0.00015835	0.52395	1.1510	99.424	23.008	169.01	175.86	9.5909	1.6653e-05	0.022163
145.56	3.9775	21072.	4.7456e-05	-1.5767	-1.3880	81.962	19.820	146.66	287.09	1.7608	4.8807e-05	0.052497	0.00050385	6365.8	0.00015709	0.51639	1.1412	99.338	23.110	172.71	175.67	9.5404	1.6714e-05	0.022333
145.67	3.9952	21007.	4.7602e-05	-1.5663	-1.3761	82.038	19.881	149.11	285.04	1.7863	4.8540e-05	0.052379	0.00048990	6417.3	0.00015583	0.50871	1.1313	99.250	23.215	176.59	175.48	9.4895	1.6776e-05	0.022508
145.78	4.0130	20942.	4.7751e-05	-1.5558	-1.3642	82.114	19.945	151.68	282.98	1.8124	4.8272e-05	0.052261	0.00047603	6469.6	0.00015457	0.50089	1.1212	99.162	23.322	180.64	175.29	9.4381	1.6840e-05	0.022687
145.89	4.0308	20876.	4.7903e-05	-1.5452	-1.3521	82.191	20.011	154.37	280.89	1.8391	4.8003e-05	0.052144	0.00046224	6522.8	0.00015331	0.49293	1.1109	99.073	23.432	184.90	175.09	9.3863	1.6905e-05	0.022870
146.01	4.0487	20808.	4.8058e-05	-1.5345	-1.3399	82.268	20.080	157.18	278.78	1.8664	4.7732e-05	0.052028	0.00044855	6576.9	0.00015205	0.48483	1.1004	98.982	23.544	189.36	174.88	9.3339	1.6971e-05	0.023058
146.12	4.0667	20740.	4.8216e-05	-1.5236	-1.3276	82.347	20.152	160.13	276.64	1.8943	4.7459e-05	0.051913	0.00043495	6631.9	0.00015079	0.47657	1.0898	98.891	23.660	194.04	174.67	9.2810	1.7038e-05	0.023251
146.23	4.0847	20671.	4.8377e-05	-1.5127	-1.3151	82.426	20.227	163.23	274.48	1.9229	4.7185e-05	0.051799	0.00042143	6687.9	0.00014952	0.46817	1.0789	98.798	23.778	198.97	174.45	9.2276	1.7106e-05	0.023450
146.34	4.1027	20601.	4.8541e-05	-1.5016	-1.3025	82.506	20.305	166.50	272.30	1.9522	4.6909e-05	0.051686	0.00040802	6744.9	0.00014826	0.45960	1.0679	98.704	23.899	204.16	174.22	9.1735	1.7176e-05	0.023654
146.45	4.1209	20530.	4.8710e-05	-1.4905	-1.2897	82.587	20.386	169.93	270.09	1.9822	4.6631e-05	0.051574	0.00039469	6803.0	0.00014699	0.45086	1.0566	98.609	24.024	209.63	173.99	9.1189	1.7248e-05	0.023864
146.56	4.1391	20458.	4.8882e-05	-1.4792	-1.2768	82.669	20.471	173.56	267.85	2.0129	4.6351e-05	0.051463	0.00038147	6862.1	0.00014573	0.44195	1.0451	98.512	24.153	215.41	173.75	9.0637	1.7320e-05	0.024080
146.67	4.1573	20384.	4.9058e-05	-1.4677	-1.2638	82.752	20.559	177.38	265.58	2.0445	4.6070e-05	0.051354	0.00036834	6922.4	0.00014446	0.43286	1.0334	98.414	24.285	221.52	173.51	9.0079	1.7395e-05	0.024302
146.79	4.1757	20310.	4.9238e-05	-1.4562	-1.2506	82.836	20.652	181.44	263.29	2.0768	4.5786e-05	0.051245	0.00035532	6983.9	0.00014319	0.42358	1.0215	98.315	24.421	227.99	173.25	8.9514	1.7471e-05	0.024532
146.90	4.1941	20234.	4.9422e-05	-1.4445	-1.2372	82.921	20.749	185.73	260.97	2.1101	4.5499e-05	0.051138	0.00034240	7046.6	0.00014191	0.41410	1.0093	98.214	24.561	234.86	172.99	8.8941	1.7548e-05	0.024769
147.01	4.2125	20157.	4.9612e-05	-1.4326	-1.2236	83.008	20.850	190.29	258.61	2.1442	4.5211e-05	0.051033	0.00032958	7110.7	0.00014063	0.40441	0.99683	98.112	24.705	242.16	172.72	8.8362	1.7628e-05	0.025013
147.12	4.2311	20078.	4.9805e-05	-1.4206	-1.2099	83.095	20.957	195.14	256.23	2.1793	4.4919e-05	0.050929	0.00031687	7176.1	0.00013935	0.39450	0.98411	98.008	24.855	249.93	172.44	8.7775	1.7709e-05	0.025267
147.23	4.2497	19998.	5.0005e-05	-1.4084	-1.1959	83.183	21.068	200.31	253.81	2.2154	4.4625e-05	0.050827	0.00030427	7242.9	0.00013807	0.38437	0.97110	97.902	25.009	258.22	172.15	8.7180	1.7793e-05	0.025529
147.34	4.2683	19917.	5.0209e-05	-1.3960	-1.1817	83.273	21.185	205.84	251.35	2.2525	4.4329e-05	0.050727	0.00029178	7311.3	0.00013677	0.37399	0.95779	97.794	25.168	267.08	171.85	8.6577	1.7878e-05	0.025801
147.45	4.2871	19834.	5.0419e-05	-1.3835	-1.1673	83.364	21.308	211.76	248.86	2.2908	4.4029e-05	0.050629	0.00027941	7381.3	0.00013548	0.36336	0.94417	97.684	25.333	276.57	171.54	8.5965	1.7966e-05	0.026083
147.57	4.3059	19749.	5.0635e-05	-1.3707	-1.1527	83.457	21.437	218.11	246.33	2.3302	4.3725e-05	0.050533	0.00026716	7452.9	0.00013418	0.35247	0.93021	97.572	25.505	286.77	171.21	8.5344	1.8056e-05	0.026376
147.68	4.3247	19662.	5.0858e-05	-1.3578	-1.1379	83.551	21.572	224.95	243.76	2.3709	4.3419e-05	0.050439	0.00025502	7526.3	0.00013287	0.34129	0.91590	97.458	25.682	297.75	170.87	8.4714	1.8149e-05	0.026682
147.79	4.3437	19574.	5.1088e-05	-1.3446	-1.1227	83.647	21.716	232.33	241.15	2.4129	4.3108e-05	0.050348	0.00024302	7601.7	0.00013155	0.32981	0.90122	97.342	25.867	309.61	170.52	8.4073	1.8245e-05	0.027000
147.90	4.3627	19484.	5.1325e-05	-1.3312	-1.1073	83.745	21.867	240.33	238.49	2.4563	4.2794e-05	0.050260	0.00023113	7679.0	0.00013023	0.31802	0.88615	97.223	26.059	322.46	170.16	8.3421	1.8343e-05	0.027333
148.01	4.3818	19391.	5.1570e-05	-1.3176	-1.0916	83.844	22.026	249.02	235.79	2.5012	4.2475e-05	0.050176	0.00021939	7758.5	0.00012889	0.30589	0.87066	97.102	26.259	336.41	169.77	8.2758	1.8444e-05	0.027680
148.12	4.4009	19296.	5.1824e-05	-1.3037	-1.0756	83.946	22.195	258.49	233.04	2.5476	4.2152e-05	0.050095	0.00020777	7840.3	0.00012755	0.29339	0.85472	96.978	26.468	351.63	169.37	8.2082	1.8549e-05	0.028045
148.23	4.4201	19199.	5.2086e-05	-1.2895	-1.0593	84.049	22.374	268.87	230.24	2.5958	4.1824e-05	0.050018	0.00019630	7924.5	0.00012619	0.28052	0.83830	96.850	26.687	368.28	168.95	8.1394	1.8657e-05	0.028429
148.35	4.4394	19099.	5.2359e-05	-1.2750	-1.0425	84.155	22.565	280.27	227.38	2.6458	4.1490e-05	0.049946	0.00018497	8011.3	0.00012482	0.26723	0.82137	96.720	26.916	386.58	168.52	8.0692	1.8769e-05	0.028832
148.46	4.4588	18996.	5.2642e-05	-1.2601	-1.0254	84.264	22.767	292.87	224.47	2.6977	4.1151e-05	0.049880	0.00017379	8101.0	0.00012344	0.25349	0.80389	96.586	27.157	406.79	168.05	7.9975	1.8886e-05	0.029259
148.57	4.4782	18890.	5.2938e-05	-1.2450	-1.0079	84.375	22.983	306.86	221.49	2.7517	4.0805e-05	0.049820	0.00016276	8193.8	0.00012204	0.23927	0.78581	96.448	27.410	429.20	167.57	7.9242	1.9006e-05	0.029711
148.68	4.4977	18781.	5.3246e-05	-1.2294	-0.98989	84.489	23.214	322.49	218.45	2.8080	4.0452e-05	0.049767	0.00015189	8289.9	0.00012063	0.22454	0.76709	96.306	27.677	454.21	167.05	7.8491	1.9132e-05	0.030191
148.79	4.5173	18668.	5.3568e-05	-1.2134	-0.97138	84.606	23.462	340.06	215.34	2.8667	4.0092e-05	0.049723	0.00014119	8389.7	0.00011919	0.20923	0.74766	96.160	27.959	482.28	166.51	7.7723	1.9263e-05	0.030703
148.90	4.5370	18551.	5.3906e-05	-1.1969	-0.95232	84.727	23.728	359.94	212.15	2.9281	3.9723e-05	0.049689	0.00013067	8493.5	0.00011774	0.19329	0.72747	96.008	28.258	514.01	165.93	7.6934	1.9400e-05	0.031252
149.01	4.5567	18429.	5.4261e-05	-1.1799	-0.93264	84.852	24.015	382.64	208.88	2.9924	3.9345e-05	0.049668	0.00012032	8601.7	0.00011626	0.17667	0.70642	95.852	28.576	550.14	165.31	7.6122	1.9544e-05	0.031843
149.13	4.5765	18303.	5.4636e-05	-1.1623	-0.91228	84.982	24.326	408.78	205.53	3.0600	3.8956e-05	0.049661	0.00011017	8714.8	0.00011475	0.15929	0.68443	95.689	28.916	591.66	164.65	7.5287	1.9695e-05	0.032482
149.24	4.5964	18171.	5.5034e-05	-1.1441	-0.89115	85.116	24.664	439.20	202.07	3.1311	3.8556e-05	0.049673	0.00010021	8833.4	0.00011321	0.14105	0.66140	95.519	29.280	639.83	163.94	7.4424	1.9855e-05	0.033177
149.35	4.6164	18032.	5.5456e-05	-1.1252	-0.86916	85.256	25.034	475.03	198.51	3.2061	3.8142e-05	0.049709	9.0467e-05	8958.2	0.00011163	0.12185	0.63718	95.342	29.672	696.39	163.18	7.3532	2.0024e-05	0.033940
149.46	4.6365	17887.	5.5907e-05	-1.1054	-0.84617	85.402	25.440	517.83	194.82	3.2855	3.7714e-05	0.049773	8.0946e-05	9090.1	0.00011001	0.10156	0.61162	95.156	30.096	763.69	162.35	7.2606	2.0204e-05	0.034783
149.57	4.6566	17733.	5.6392e-05	-1.0846	-0.82203	85.556	25.889	569.83	191.01	3.3700	3.7267e-05	0.049875	7.1663e-05	9230.2	0.00010834	0.080011	0.58451	94.960	30.558	845.05	161.45	7.1641	2.0397e-05	0.035725
149.68	4.6768	17569.	5.6918e-05	-1.0627	-0.79656	85.719	26.390	634.26	187.04	3.4601	3.6800e-05	0.050027	6.2635e-05	9379.9	0.00010661	0.056990	0.55559	94.752	31.064	945.33	160.46	7.0632	2.0604e-05	0.036790
149.80	4.6971	17394.	5.7491e-05	-1.0395	-0.76947	85.892	26.953	716.09	182.90	3.5569	3.6308e-05	0.050247	5.3882e-05	9540.9	0.00010481	0.032223	0.52454	94.530	31.623	1071.8	159.37	6.9572	2.0829e-05	0.038012
149.91	4.7175	17205.	5.8124e-05	-1.0146	-0.74043	86.078	27.594	823.27	178.55	3.6613	3.5786e-05	0.050563	4.5429e-05	9715.9	0.00010292	0.0053389	0.49089	94.292	32.247	1236.3	158.15	6.8450	2.1077e-05	0.039442
150.02	4.7380	16998.	5.8832e-05	-0.98769	-0.70894	86.280	28.333	969.37	173.97	3.7752	3.5226e-05	0.051019	3.7306e-05	9908.2	0.00010093	-0.024183	0.45401	94.032	32.952	1458.2	156.77	6.7253	2.1352e-05	0.041157
150.13	4.7586	16768.	5.9638e-05	-0.95806	-0.67427	86.503	29.202	1179.5	169.10	3.9005	3.4618e-05	0.051692	2.9552e-05	10123.	9.8785e-05	-0.057108	0.41297	93.745	33.760	1773.6	155.19	6.5963	2.1663e-05	0.043285
150.24	4.7792	16507.	6.0581e-05	-0.92477	-0.63524	86.754	30.247	1505.3	163.87	4.0405	3.3944e-05	0.052730	2.2219e-05	10368.	9.6447e-05	-0.094648	0.36629	93.421	34.708	2255.3	153.32	6.4548	2.2024e-05	0.046057
150.35	4.8000	16200.	6.1728e-05	-0.88608	-0.58979	87.048	31.552	2073.1	158.15	4.2006	3.3174e-05	0.054453	1.5384e-05	10659.	9.3818e-05	-0.13892	0.31141	93.042	35.853	3077.6	151.06	6.2958	2.2460e-05	0.049948
150.46	4.8209	15818.	6.3219e-05	-0.83839	-0.53362	87.413	33.278	3282.8	151.73	4.3909	3.2246e-05	0.057742	9.1625e-06	11024.	9.0709e-05	-0.19426	0.24304	92.575	37.302	4779.6	148.15	6.1094	2.3020e-05	0.056181
150.58	4.8419	15276.	6.5461e-05	-0.77144	-0.45448	87.930	35.843	7329.3	144.13	4.6372	3.0986e-05	0.066358	3.7783e-06	11548.	8.6592e-05	-0.27280	0.14647	91.921	39.310	10204.	143.99	5.8689	2.3851e-05	0.069582
150.69	4.8630	13407.	7.4586e-05	-0.53574	-0.17303	89.788	undefined	undefined	undefined	5.2503	2.7105e-05	undefined	undefined	13407.	7.4586e-05	-0.53574	-0.17303	89.788	undefined	undefined	undefined	5.2503	2.7105e-05	undefined
